PE IR                   SPECTRUM    ASCII       PEDS        1.60        
  -1
~SP.SP
22/12/06
12:33:15.00
23/01/09
14:40:50.00
Administrator

650.000000
4









FRONTIER FT-IR,CPU32 MAIN 00.09.9951 07-SEPTEMBER-2011 11:49:41
MIR TGS
MIR
OPTKBR
90694
0.200000

4.000000
STRONG
RATIO
SPECTRUM
MAGNITUDE
MIRACLE ATR
DOUBLE

COMBINED


0


#HDR
-1
-1
#GR
CM-1
%T
0.00002384185791015625
0.0
4000.000000
-1.000000
3351
8
83.005792
64.510319
#DATA
4000.000000	82.980391 
3999.000000	82.979670 
3998.000000	82.978958 
3997.000000	82.978271 
3996.000000	82.977617 
3995.000000	82.976994 
3994.000000	82.976384 
3993.000000	82.975763 
3992.000000	82.975115 
3991.000000	82.974443 
3990.000000	82.973766 
3989.000000	82.973100 
3988.000000	82.972453 
3987.000000	82.971818 
3986.000000	82.971180 
3985.000000	82.970528 
3984.000000	82.969855 
3983.000000	82.969166 
3982.000000	82.968467 
3981.000000	82.967765 
3980.000000	82.967066 
3979.000000	82.966375 
3978.000000	82.965693 
3977.000000	82.965016 
3976.000000	82.964333 
3975.000000	82.963639 
3974.000000	82.962932 
3973.000000	82.962220 
3972.000000	82.961515 
3971.000000	82.960828 
3970.000000	82.960165 
3969.000000	82.959526 
3968.000000	82.958904 
3967.000000	82.958288 
3966.000000	82.957669 
3965.000000	82.957039 
3964.000000	82.956393 
3963.000000	82.955733 
3962.000000	82.955069 
3961.000000	82.954411 
3960.000000	82.953766 
3959.000000	82.953140 
3958.000000	82.952537 
3957.000000	82.951962 
3956.000000	82.951409 
3955.000000	82.950866 
3954.000000	82.950317 
3953.000000	82.949755 
3952.000000	82.949183 
3951.000000	82.948614 
3950.000000	82.948060 
3949.000000	82.947524 
3948.000000	82.947002 
3947.000000	82.946484 
3946.000000	82.945957 
3945.000000	82.945416 
3944.000000	82.944862 
3943.000000	82.944297 
3942.000000	82.943726 
3941.000000	82.943156 
3940.000000	82.942595 
3939.000000	82.942049 
3938.000000	82.941518 
3937.000000	82.940997 
3936.000000	82.940475 
3935.000000	82.939946 
3934.000000	82.939416 
3933.000000	82.938899 
3932.000000	82.938411 
3931.000000	82.937948 
3930.000000	82.937486 
3929.000000	82.936990 
3928.000000	82.936437 
3927.000000	82.935827 
3926.000000	82.935178 
3925.000000	82.934505 
3924.000000	82.933808 
3923.000000	82.933077 
3922.000000	82.932312 
3921.000000	82.931525 
3920.000000	82.930733 
3919.000000	82.929943 
3918.000000	82.929152 
3917.000000	82.928359 
3916.000000	82.927561 
3915.000000	82.926755 
3914.000000	82.925927 
3913.000000	82.925065 
3912.000000	82.924166 
3911.000000	82.923239 
3910.000000	82.922286 
3909.000000	82.921300 
3908.000000	82.920267 
3907.000000	82.919186 
3906.000000	82.918061 
3905.000000	82.916901 
3904.000000	82.915705 
3903.000000	82.914475 
3902.000000	82.913225 
3901.000000	82.911987 
3900.000000	82.910800 
3899.000000	82.909694 
3898.000000	82.908678 
3897.000000	82.907737 
3896.000000	82.906844 
3895.000000	82.905982 
3894.000000	82.905153 
3893.000000	82.904362 
3892.000000	82.903598 
3891.000000	82.902840 
3890.000000	82.902066 
3889.000000	82.901256 
3888.000000	82.900417 
3887.000000	82.899583 
3886.000000	82.898795 
3885.000000	82.898071 
3884.000000	82.897405 
3883.000000	82.896784 
3882.000000	82.896221 
3881.000000	82.895747 
3880.000000	82.895380 
3879.000000	82.895106 
3878.000000	82.894894 
3877.000000	82.894716 
3876.000000	82.894553 
3875.000000	82.894436 
3874.000000	82.894405 
3873.000000	82.894396 
3872.000000	82.894243 
3871.000000	82.893886 
3870.000000	82.893583 
3869.000000	82.893625 
3868.000000	82.893805 
3867.000000	82.893617 
3866.000000	82.893191 
3865.000000	82.893133 
3864.000000	82.893577 
3863.000000	82.894078 
3862.000000	82.894316 
3861.000000	82.894556 
3860.000000	82.895288 
3859.000000	82.896781 
3858.000000	82.899220 
3857.000000	82.902543 
3856.000000	82.905842 
3855.000000	82.907335 
3854.000000	82.906304 
3853.000000	82.904884 
3852.000000	82.904578 
3851.000000	82.903592 
3850.000000	82.901637 
3849.000000	82.900441 
3848.000000	82.900683 
3847.000000	82.901750 
3846.000000	82.902787 
3845.000000	82.903394 
3844.000000	82.903711 
3843.000000	82.904107 
3842.000000	82.904760 
3841.000000	82.905503 
3840.000000	82.906118 
3839.000000	82.906547 
3838.000000	82.906895 
3837.000000	82.907169 
3836.000000	82.907196 
3835.000000	82.906857 
3834.000000	82.906315 
3833.000000	82.905826 
3832.000000	82.905486 
3831.000000	82.905204 
3830.000000	82.904837 
3829.000000	82.904345 
3828.000000	82.903815 
3827.000000	82.903331 
3826.000000	82.902870 
3825.000000	82.902349 
3824.000000	82.901715 
3823.000000	82.900979 
3822.000000	82.900176 
3821.000000	82.899325 
3820.000000	82.898417 
3819.000000	82.897417 
3818.000000	82.896303 
3817.000000	82.895088 
3816.000000	82.893802 
3815.000000	82.892471 
3814.000000	82.891107 
3813.000000	82.889741 
3812.000000	82.888423 
3811.000000	82.887186 
3810.000000	82.886038 
3809.000000	82.884940 
3808.000000	82.883813 
3807.000000	82.882670 
3806.000000	82.881569 
3805.000000	82.880278 
3804.000000	82.878571 
3803.000000	82.876575 
3802.000000	82.874630 
3801.000000	82.872908 
3800.000000	82.871213 
3799.000000	82.869134 
3798.000000	82.866779 
3797.000000	82.864793 
3796.000000	82.863500 
3795.000000	82.862602 
3794.000000	82.861401 
3793.000000	82.859470 
3792.000000	82.856957 
3791.000000	82.854347 
3790.000000	82.852023 
3789.000000	82.850263 
3788.000000	82.849196 
3787.000000	82.848670 
3786.000000	82.848334 
3785.000000	82.848271 
3784.000000	82.848770 
3783.000000	82.849516 
3782.000000	82.849860 
3781.000000	82.849963 
3780.000000	82.850703 
3779.000000	82.852181 
3778.000000	82.852851 
3777.000000	82.850887 
3776.000000	82.847059 
3775.000000	82.844284 
3774.000000	82.844091 
3773.000000	82.845096 
3772.000000	82.845562 
3771.000000	82.846226 
3770.000000	82.848999 
3769.000000	82.852841 
3768.000000	82.853736 
3767.000000	82.850332 
3766.000000	82.846606 
3765.000000	82.846632 
3764.000000	82.849272 
3763.000000	82.850069 
3762.000000	82.847409 
3761.000000	82.844053 
3760.000000	82.842573 
3759.000000	82.842797 
3758.000000	82.844039 
3757.000000	82.846645 
3756.000000	82.851239 
3755.000000	82.857333 
3754.000000	82.863854 
3753.000000	82.868882 
3752.000000	82.869607 
3751.000000	82.866609 
3750.000000	82.865736 
3749.000000	82.869073 
3748.000000	82.869956 
3747.000000	82.862584 
3746.000000	82.849195 
3745.000000	82.837284 
3744.000000	82.836054 
3743.000000	82.841233 
3742.000000	82.832827 
3741.000000	82.811368 
3740.000000	82.797492 
3739.000000	82.795414 
3738.000000	82.791822 
3737.000000	82.778691 
3736.000000	82.765803 
3735.000000	82.766532 
3734.000000	82.778753 
3733.000000	82.790098 
3732.000000	82.793343 
3731.000000	82.786265 
3730.000000	82.765936 
3729.000000	82.733957 
3728.000000	82.701154 
3727.000000	82.679522 
3726.000000	82.671508 
3725.000000	82.669127 
3724.000000	82.663906 
3723.000000	82.656593 
3722.000000	82.652275 
3721.000000	82.651555 
3720.000000	82.650154 
3719.000000	82.644980 
3718.000000	82.637280 
3717.000000	82.629414 
3716.000000	82.622066 
3715.000000	82.614207 
3714.000000	82.604211 
3713.000000	82.588335 
3712.000000	82.563430 
3711.000000	82.532454 
3710.000000	82.500781 
3709.000000	82.471032 
3708.000000	82.445132 
3707.000000	82.424764 
3706.000000	82.408807 
3705.000000	82.392013 
3704.000000	82.367810 
3703.000000	82.333187 
3702.000000	82.292117 
3701.000000	82.252339 
3700.000000	82.216080 
3699.000000	82.179619 
3698.000000	82.142722 
3697.000000	82.110423 
3696.000000	82.085383 
3695.000000	82.064845 
3694.000000	82.047236 
3693.000000	82.036504 
3692.000000	82.034744 
3691.000000	82.034351 
3690.000000	82.024121 
3689.000000	82.003040 
3688.000000	81.979463 
3687.000000	81.954477 
3686.000000	81.923101 
3685.000000	81.891072 
3684.000000	81.871156 
3683.000000	81.866170 
3682.000000	81.867442 
3681.000000	81.866090 
3680.000000	81.859759 
3679.000000	81.846603 
3678.000000	81.820691 
3677.000000	81.782695 
3676.000000	81.751799 
3675.000000	81.751168 
3674.000000	81.769257 
3673.000000	81.769570 
3672.000000	81.745489 
3671.000000	81.717368 
3670.000000	81.698555 
3669.000000	81.689606 
3668.000000	81.679879 
3667.000000	81.661076 
3666.000000	81.638753 
3665.000000	81.619957 
3664.000000	81.605292 
3663.000000	81.594646 
3662.000000	81.590903 
3661.000000	81.595432 
3660.000000	81.604589 
3659.000000	81.613073 
3658.000000	81.621140 
3657.000000	81.636205 
3656.000000	81.663531 
3655.000000	81.694674 
3654.000000	81.712794 
3653.000000	81.715150 
3652.000000	81.713490 
3651.000000	81.713416 
3650.000000	81.711049 
3649.000000	81.708988 
3648.000000	81.716500 
3647.000000	81.735333 
3646.000000	81.756606 
3645.000000	81.771296 
3644.000000	81.778817 
3643.000000	81.784526 
3642.000000	81.792436 
3641.000000	81.801666 
3640.000000	81.810343 
3639.000000	81.819481 
3638.000000	81.831159 
3637.000000	81.843295 
3636.000000	81.852213 
3635.000000	81.860340 
3634.000000	81.874598 
3633.000000	81.895918 
3632.000000	81.915435 
3631.000000	81.924547 
3630.000000	81.923318 
3629.000000	81.922862 
3628.000000	81.932605 
3627.000000	81.942003 
3626.000000	81.940946 
3625.000000	81.939765 
3624.000000	81.948772 
3623.000000	81.964048 
3622.000000	81.977381 
3621.000000	81.986313 
3620.000000	81.993926 
3619.000000	82.003416 
3618.000000	82.014249 
3617.000000	82.023165 
3616.000000	82.028809 
3615.000000	82.033387 
3614.000000	82.039999 
3613.000000	82.050036 
3612.000000	82.062164 
3611.000000	82.073423 
3610.000000	82.082382 
3609.000000	82.090834 
3608.000000	82.101374 
3607.000000	82.113916 
3606.000000	82.125759 
3605.000000	82.134965 
3604.000000	82.141886 
3603.000000	82.147334 
3602.000000	82.152196 
3601.000000	82.158470 
3600.000000	82.167632 
3599.000000	82.177913 
3598.000000	82.185337 
3597.000000	82.187671 
3596.000000	82.186402 
3595.000000	82.185984 
3594.000000	82.190346 
3593.000000	82.199659 
3592.000000	82.210123 
3591.000000	82.217729 
3590.000000	82.220543 
3589.000000	82.219355 
3588.000000	82.218459 
3587.000000	82.223234 
3586.000000	82.232898 
3585.000000	82.240474 
3584.000000	82.241909 
3583.000000	82.239409 
3582.000000	82.237346 
3581.000000	82.238129 
3580.000000	82.241144 
3579.000000	82.243953 
3578.000000	82.244888 
3577.000000	82.244645 
3576.000000	82.244514 
3575.000000	82.244466 
3574.000000	82.243453 
3573.000000	82.241232 
3572.000000	82.238428 
3571.000000	82.234843 
3570.000000	82.229087 
3569.000000	82.220643 
3568.000000	82.212556 
3567.000000	82.210088 
3566.000000	82.214902 
3565.000000	82.222789 
3564.000000	82.228855 
3563.000000	82.231767 
3562.000000	82.232165 
3561.000000	82.230947 
3560.000000	82.229494 
3559.000000	82.229290 
3558.000000	82.230577 
3557.000000	82.231949 
3556.000000	82.231562 
3555.000000	82.228646 
3554.000000	82.224152 
3553.000000	82.220032 
3552.000000	82.217667 
3551.000000	82.216725 
3550.000000	82.215822 
3549.000000	82.214103 
3548.000000	82.211778 
3547.000000	82.209596 
3546.000000	82.208459 
3545.000000	82.209052 
3544.000000	82.211175 
3543.000000	82.213554 
3542.000000	82.214614 
3541.000000	82.213517 
3540.000000	82.210541 
3539.000000	82.206757 
3538.000000	82.203446 
3537.000000	82.201379 
3536.000000	82.200512 
3535.000000	82.200153 
3534.000000	82.199517 
3533.000000	82.198238 
3532.000000	82.196329 
3531.000000	82.193811 
3530.000000	82.190681 
3529.000000	82.187274 
3528.000000	82.184239 
3527.000000	82.181959 
3526.000000	82.180174 
3525.000000	82.178411 
3524.000000	82.176522 
3523.000000	82.174607 
3522.000000	82.172664 
3521.000000	82.170676 
3520.000000	82.168848 
3519.000000	82.167392 
3518.000000	82.166125 
3517.000000	82.164594 
3516.000000	82.162608 
3515.000000	82.160386 
3514.000000	82.158078 
3513.000000	82.155419 
3512.000000	82.152154 
3511.000000	82.148584 
3510.000000	82.145406 
3509.000000	82.143024 
3508.000000	82.141136 
3507.000000	82.138989 
3506.000000	82.136059 
3505.000000	82.132416 
3504.000000	82.128575 
3503.000000	82.125120 
3502.000000	82.122276 
3501.000000	82.119858 
3500.000000	82.117510 
3499.000000	82.115016 
3498.000000	82.112367 
3497.000000	82.109646 
3496.000000	82.106926 
3495.000000	82.104209 
3494.000000	82.101462 
3493.000000	82.098691 
3492.000000	82.095948 
3491.000000	82.093265 
3490.000000	82.090608 
3489.000000	82.087924 
3488.000000	82.085192 
3487.000000	82.082418 
3486.000000	82.079593 
3485.000000	82.076693 
3484.000000	82.073723 
3483.000000	82.070719 
3482.000000	82.067711 
3481.000000	82.064705 
3480.000000	82.061691 
3479.000000	82.058664 
3478.000000	82.055615 
3477.000000	82.052529 
3476.000000	82.049400 
3475.000000	82.046237 
3474.000000	82.043059 
3473.000000	82.039882 
3472.000000	82.036708 
3471.000000	82.033533 
3470.000000	82.030346 
3469.000000	82.027142 
3468.000000	82.023922 
3467.000000	82.020683 
3466.000000	82.017425 
3465.000000	82.014144 
3464.000000	82.010842 
3463.000000	82.007511 
3462.000000	82.004143 
3461.000000	82.000748 
3460.000000	81.997351 
3459.000000	81.993976 
3458.000000	81.990623 
3457.000000	81.987265 
3456.000000	81.983886 
3455.000000	81.980497 
3454.000000	81.977095 
3453.000000	81.973635 
3452.000000	81.970074 
3451.000000	81.966398 
3450.000000	81.962590 
3449.000000	81.958650 
3448.000000	81.954721 
3447.000000	81.951079 
3446.000000	81.947840 
3445.000000	81.944691 
3444.000000	81.941129 
3443.000000	81.936929 
3442.000000	81.932305 
3441.000000	81.927782 
3440.000000	81.923852 
3439.000000	81.920608 
3438.000000	81.917528 
3437.000000	81.913765 
3436.000000	81.909055 
3435.000000	81.904157 
3434.000000	81.900160 
3433.000000	81.897421 
3432.000000	81.895395 
3431.000000	81.893403 
3430.000000	81.891161 
3429.000000	81.888627 
3428.000000	81.885708 
3427.000000	81.882308 
3426.000000	81.878557 
3425.000000	81.874798 
3424.000000	81.871332 
3423.000000	81.868199 
3422.000000	81.865238 
3421.000000	81.862360 
3420.000000	81.859730 
3419.000000	81.857686 
3418.000000	81.856399 
3417.000000	81.855524 
3416.000000	81.854195 
3415.000000	81.851602 
3414.000000	81.847753 
3413.000000	81.843734 
3412.000000	81.840905 
3411.000000	81.839644 
3410.000000	81.838981 
3409.000000	81.837659 
3408.000000	81.835539 
3407.000000	81.833704 
3406.000000	81.833182 
3405.000000	81.833831 
3404.000000	81.834453 
3403.000000	81.833761 
3402.000000	81.831196 
3401.000000	81.827201 
3400.000000	81.823250 
3399.000000	81.821249 
3398.000000	81.822246 
3397.000000	81.825469 
3396.000000	81.828688 
3395.000000	81.830119 
3394.000000	81.829718 
3393.000000	81.828535 
3392.000000	81.827427 
3391.000000	81.826636 
3390.000000	81.826180 
3389.000000	81.825907 
3388.000000	81.825269 
3387.000000	81.823790 
3386.000000	81.821963 
3385.000000	81.821074 
3384.000000	81.821787 
3383.000000	81.823392 
3382.000000	81.824815 
3381.000000	81.825987 
3380.000000	81.827618 
3379.000000	81.829872 
3378.000000	81.831947 
3377.000000	81.833116 
3376.000000	81.833669 
3375.000000	81.834560 
3374.000000	81.836409 
3373.000000	81.839184 
3372.000000	81.842603 
3371.000000	81.846355 
3370.000000	81.849832 
3369.000000	81.852112 
3368.000000	81.852654 
3367.000000	81.851862 
3366.000000	81.850858 
3365.000000	81.850634 
3364.000000	81.851521 
3363.000000	81.853454 
3362.000000	81.856307 
3361.000000	81.859819 
3360.000000	81.863429 
3359.000000	81.866518 
3358.000000	81.868875 
3357.000000	81.870815 
3356.000000	81.872797 
3355.000000	81.874948 
3354.000000	81.876945 
3353.000000	81.878408 
3352.000000	81.879396 
3351.000000	81.880492 
3350.000000	81.882280 
3349.000000	81.884793 
3348.000000	81.887523 
3347.000000	81.889887 
3346.000000	81.891756 
3345.000000	81.893408 
3344.000000	81.895163 
3343.000000	81.897084 
3342.000000	81.899036 
3341.000000	81.900865 
3340.000000	81.902514 
3339.000000	81.904038 
3338.000000	81.905576 
3337.000000	81.907254 
3336.000000	81.909100 
3335.000000	81.911002 
3334.000000	81.912779 
3333.000000	81.914340 
3332.000000	81.915765 
3331.000000	81.917236 
3330.000000	81.918854 
3329.000000	81.920556 
3328.000000	81.922164 
3327.000000	81.923535 
3326.000000	81.924653 
3325.000000	81.925647 
3324.000000	81.926724 
3323.000000	81.928018 
3322.000000	81.929532 
3321.000000	81.931158 
3320.000000	81.932758 
3319.000000	81.934222 
3318.000000	81.935489 
3317.000000	81.936544 
3316.000000	81.937438 
3315.000000	81.938267 
3314.000000	81.939107 
3313.000000	81.939936 
3312.000000	81.940679 
3311.000000	81.941348 
3310.000000	81.942141 
3309.000000	81.943288 
3308.000000	81.944794 
3307.000000	81.946377 
3306.000000	81.947714 
3305.000000	81.948766 
3304.000000	81.949763 
3303.000000	81.950917 
3302.000000	81.952183 
3301.000000	81.953323 
3300.000000	81.954186 
3299.000000	81.954857 
3298.000000	81.955566 
3297.000000	81.956493 
3296.000000	81.957665 
3295.000000	81.958965 
3294.000000	81.960149 
3293.000000	81.960965 
3292.000000	81.961344 
3291.000000	81.961484 
3290.000000	81.961762 
3289.000000	81.962415 
3288.000000	81.963395 
3287.000000	81.964415 
3286.000000	81.965173 
3285.000000	81.965588 
3284.000000	81.965787 
3283.000000	81.965968 
3282.000000	81.966249 
3281.000000	81.966636 
3280.000000	81.967055 
3279.000000	81.967405 
3278.000000	81.967649 
3277.000000	81.967892 
3276.000000	81.968329 
3275.000000	81.969072 
3274.000000	81.969976 
3273.000000	81.970719 
3272.000000	81.971093 
3271.000000	81.971149 
3270.000000	81.971041 
3269.000000	81.970838 
3268.000000	81.970586 
3267.000000	81.970487 
3266.000000	81.970801 
3265.000000	81.971481 
3264.000000	81.972086 
3263.000000	81.972262 
3262.000000	81.972272 
3261.000000	81.972775 
3260.000000	81.973958 
3259.000000	81.975046 
3258.000000	81.974920 
3257.000000	81.973285 
3256.000000	81.971192 
3255.000000	81.970225 
3254.000000	81.971076 
3253.000000	81.973033 
3252.000000	81.974803 
3251.000000	81.975622 
3250.000000	81.975426 
3249.000000	81.974415 
3248.000000	81.972984 
3247.000000	81.971846 
3246.000000	81.971550 
3245.000000	81.971680 
3244.000000	81.971157 
3243.000000	81.969631 
3242.000000	81.967998 
3241.000000	81.967068 
3240.000000	81.966213 
3239.000000	81.963987 
3238.000000	81.959923 
3237.000000	81.955298 
3236.000000	81.952142 
3235.000000	81.951760 
3234.000000	81.954076 
3233.000000	81.957838 
3232.000000	81.961311 
3231.000000	81.963314 
3230.000000	81.963885 
3229.000000	81.963991 
3228.000000	81.964667 
3227.000000	81.966373 
3226.000000	81.968819 
3225.000000	81.971053 
3224.000000	81.971920 
3223.000000	81.971021 
3222.000000	81.969331 
3221.000000	81.968541 
3220.000000	81.969459 
3219.000000	81.971274 
3218.000000	81.972514 
3217.000000	81.972548 
3216.000000	81.972029 
3215.000000	81.972082 
3214.000000	81.973321 
3213.000000	81.975677 
3212.000000	81.978729 
3211.000000	81.981927 
3210.000000	81.984698 
3209.000000	81.986643 
3208.000000	81.987804 
3207.000000	81.988618 
3206.000000	81.989521 
3205.000000	81.990616 
3204.000000	81.991750 
3203.000000	81.992828 
3202.000000	81.993964 
3201.000000	81.995366 
3200.000000	81.997154 
3199.000000	81.999262 
3198.000000	82.001454 
3197.000000	82.003452 
3196.000000	82.005153 
3195.000000	82.006691 
3194.000000	82.008265 
3193.000000	82.009943 
3192.000000	82.011668 
3191.000000	82.013374 
3190.000000	82.015036 
3189.000000	82.016654 
3188.000000	82.018247 
3187.000000	82.019838 
3186.000000	82.021438 
3185.000000	82.023047 
3184.000000	82.024660 
3183.000000	82.026267 
3182.000000	82.027860 
3181.000000	82.029439 
3180.000000	82.031012 
3179.000000	82.032590 
3178.000000	82.034182 
3177.000000	82.035787 
3176.000000	82.037398 
3175.000000	82.039007 
3174.000000	82.040606 
3173.000000	82.042191 
3172.000000	82.043755 
3171.000000	82.045292 
3170.000000	82.046799 
3169.000000	82.048281 
3168.000000	82.049752 
3167.000000	82.051223 
3166.000000	82.052702 
3165.000000	82.054185 
3164.000000	82.055663 
3163.000000	82.057129 
3162.000000	82.058577 
3161.000000	82.060007 
3160.000000	82.061423 
3159.000000	82.062828 
3158.000000	82.064230 
3157.000000	82.065635 
3156.000000	82.067039 
3155.000000	82.068436 
3154.000000	82.069822 
3153.000000	82.071210 
3152.000000	82.072613 
3151.000000	82.074025 
3150.000000	82.075411 
3149.000000	82.076747 
3148.000000	82.078056 
3147.000000	82.079403 
3146.000000	82.080836 
3145.000000	82.082349 
3144.000000	82.083876 
3143.000000	82.085328 
3142.000000	82.086647 
3141.000000	82.087847 
3140.000000	82.088991 
3139.000000	82.090149 
3138.000000	82.091363 
3137.000000	82.092617 
3136.000000	82.093861 
3135.000000	82.095048 
3134.000000	82.096164 
3133.000000	82.097243 
3132.000000	82.098349 
3131.000000	82.099529 
3130.000000	82.100768 
3129.000000	82.102010 
3128.000000	82.103211 
3127.000000	82.104371 
3126.000000	82.105520 
3125.000000	82.106676 
3124.000000	82.107831 
3123.000000	82.108961 
3122.000000	82.110056 
3121.000000	82.111126 
3120.000000	82.112197 
3119.000000	82.113296 
3118.000000	82.114432 
3117.000000	82.115597 
3116.000000	82.116777 
3115.000000	82.117960 
3114.000000	82.119130 
3113.000000	82.120255 
3112.000000	82.121306 
3111.000000	82.122345 
3110.000000	82.123577 
3109.000000	82.125190 
3108.000000	82.127005 
3107.000000	82.128401 
3106.000000	82.128852 
3105.000000	82.128611 
3104.000000	82.128763 
3103.000000	82.130396 
3102.000000	82.133556 
3101.000000	82.136907 
3100.000000	82.138864 
3099.000000	82.139179 
3098.000000	82.138990 
3097.000000	82.138882 
3096.000000	82.137571 
3095.000000	82.133594 
3094.000000	82.128144 
3093.000000	82.125021 
3092.000000	82.127206 
3091.000000	82.133929 
3090.000000	82.141298 
3089.000000	82.145796 
3088.000000	82.146990 
3087.000000	82.146992 
3086.000000	82.147584 
3085.000000	82.148364 
3084.000000	82.148049 
3083.000000	82.146941 
3082.000000	82.146904 
3081.000000	82.148734 
3080.000000	82.150927 
3079.000000	82.151910 
3078.000000	82.152438 
3077.000000	82.154556 
3076.000000	82.158821 
3075.000000	82.163791 
3074.000000	82.167873 
3073.000000	82.170486 
3072.000000	82.171613 
3071.000000	82.171402 
3070.000000	82.170255 
3069.000000	82.168126 
3068.000000	82.163591 
3067.000000	82.155074 
3066.000000	82.143700 
3065.000000	82.133900 
3064.000000	82.130109 
3063.000000	82.133055 
3062.000000	82.139675 
3061.000000	82.146002 
3060.000000	82.149758 
3059.000000	82.150887 
3058.000000	82.150527 
3057.000000	82.149513 
3056.000000	82.147427 
3055.000000	82.142786 
3054.000000	82.134028 
3053.000000	82.120413 
3052.000000	82.102755 
3051.000000	82.084093 
3050.000000	82.069068 
3049.000000	82.060889 
3048.000000	82.057971 
3047.000000	82.054506 
3046.000000	82.045433 
3045.000000	82.030779 
3044.000000	82.014924 
3043.000000	82.001939 
3042.000000	81.991863 
3041.000000	81.980941 
3040.000000	81.964838 
3039.000000	81.941812 
3038.000000	81.913607 
3037.000000	81.883646 
3036.000000	81.853982 
3035.000000	81.824095 
3034.000000	81.792546 
3033.000000	81.758702 
3032.000000	81.723050 
3031.000000	81.686478 
3030.000000	81.648625 
3029.000000	81.607369 
3028.000000	81.560839 
3027.000000	81.509482 
3026.000000	81.455720 
3025.000000	81.401899 
3024.000000	81.348896 
3023.000000	81.296342 
3022.000000	81.243379 
3021.000000	81.188968 
3020.000000	81.132047 
3019.000000	81.071941 
3018.000000	81.008623 
3017.000000	80.942625 
3016.000000	80.874959 
3015.000000	80.806790 
3014.000000	80.738226 
3013.000000	80.667344 
3012.000000	80.591669 
3011.000000	80.511375 
3010.000000	80.429921 
3009.000000	80.350404 
3008.000000	80.271982 
3007.000000	80.191172 
3006.000000	80.106525 
3005.000000	80.020927 
3004.000000	79.939026 
3003.000000	79.863107 
3002.000000	79.791840 
3001.000000	79.722429 
3000.000000	79.653332 
2999.000000	79.585089 
2998.000000	79.519737 
2997.000000	79.460284 
2996.000000	79.408984 
2995.000000	79.361780 
2994.000000	79.302500 
2993.000000	79.207938 
2992.000000	79.067650 
2991.000000	78.901552 
2990.000000	78.752555 
2989.000000	78.656456 
2988.000000	78.619771 
2987.000000	78.625278 
2986.000000	78.651789 
2985.000000	78.684132 
2984.000000	78.709671 
2983.000000	78.717508 
2982.000000	78.705686 
2981.000000	78.683778 
2980.000000	78.664133 
2979.000000	78.652376 
2978.000000	78.647305 
2977.000000	78.645658 
2976.000000	78.644358 
2975.000000	78.642040 
2974.000000	78.642944 
2973.000000	78.657712 
2972.000000	78.696194 
2971.000000	78.759255 
2970.000000	78.839816 
2969.000000	78.931291 
2968.000000	79.032184 
2967.000000	79.142093 
2966.000000	79.255946 
2965.000000	79.364411 
2964.000000	79.459757 
2963.000000	79.540279 
2962.000000	79.609020 
2961.000000	79.669212 
2960.000000	79.722191 
2959.000000	79.769710 
2958.000000	79.816147 
2957.000000	79.865819 
2956.000000	79.918106 
2955.000000	79.967749 
2954.000000	80.011015 
2953.000000	80.049680 
2952.000000	80.087434 
2951.000000	80.123857 
2950.000000	80.153992 
2949.000000	80.173442 
2948.000000	80.182269 
2947.000000	80.184403 
2946.000000	80.185202 
2945.000000	80.189571 
2944.000000	80.200509 
2943.000000	80.218479 
2942.000000	80.241915 
2941.000000	80.268038 
2940.000000	80.293730 
2939.000000	80.317229 
2938.000000	80.339782 
2937.000000	80.364900 
2936.000000	80.395136 
2935.000000	80.429751 
2934.000000	80.465670 
2933.000000	80.499764 
2932.000000	80.529844 
2931.000000	80.554828 
2930.000000	80.575420 
2929.000000	80.594085 
2928.000000	80.612841 
2927.000000	80.630979 
2926.000000	80.645874 
2925.000000	80.656160 
2924.000000	80.663443 
2923.000000	80.670890 
2922.000000	80.680423 
2921.000000	80.690774 
2920.000000	80.697329 
2919.000000	80.693502 
2918.000000	80.672563 
2917.000000	80.628697 
2916.000000	80.558019 
2915.000000	80.461123 
2914.000000	80.346236 
2913.000000	80.228872 
2912.000000	80.125611 
2911.000000	80.045841 
2910.000000	79.987950 
2909.000000	79.942484 
2908.000000	79.899368 
2907.000000	79.853072 
2906.000000	79.801403 
2905.000000	79.740837 
2904.000000	79.667095 
2903.000000	79.584639 
2902.000000	79.514516 
2901.000000	79.485685 
2900.000000	79.513298 
2899.000000	79.583823 
2898.000000	79.662828 
2897.000000	79.719365 
2896.000000	79.744337 
2895.000000	79.748997 
2894.000000	79.750445 
2893.000000	79.759090 
2892.000000	79.775658 
2891.000000	79.795053 
2890.000000	79.811398 
2889.000000	79.820996 
2888.000000	79.823197 
2887.000000	79.820740 
2886.000000	79.819711 
2885.000000	79.827813 
2884.000000	79.851025 
2883.000000	79.890886 
2882.000000	79.944274 
2881.000000	80.005202 
2880.000000	80.067279 
2879.000000	80.126168 
2878.000000	80.180731 
2877.000000	80.231705 
2876.000000	80.279269 
2875.000000	80.322683 
2874.000000	80.362234 
2873.000000	80.399842 
2872.000000	80.436907 
2871.000000	80.472930 
2870.000000	80.507607 
2869.000000	80.543237 
2868.000000	80.583604 
2867.000000	80.631103 
2866.000000	80.686069 
2865.000000	80.747861 
2864.000000	80.814771 
2863.000000	80.883639 
2862.000000	80.951839 
2861.000000	81.019814 
2860.000000	81.089873 
2859.000000	81.162349 
2858.000000	81.234757 
2857.000000	81.305132 
2856.000000	81.373958 
2855.000000	81.441453 
2854.000000	81.505132 
2853.000000	81.561923 
2852.000000	81.611026 
2851.000000	81.652757 
2850.000000	81.685137 
2849.000000	81.703201 
2848.000000	81.702510 
2847.000000	81.683600 
2846.000000	81.653701 
2845.000000	81.624222 
2844.000000	81.605073 
2843.000000	81.599503 
2842.000000	81.603265 
2841.000000	81.608858 
2840.000000	81.611339 
2839.000000	81.611058 
2838.000000	81.611685 
2837.000000	81.616044 
2836.000000	81.623674 
2835.000000	81.631761 
2834.000000	81.637836 
2833.000000	81.641495 
2832.000000	81.644198 
2831.000000	81.648011 
2830.000000	81.654049 
2829.000000	81.661098 
2828.000000	81.665766 
2827.000000	81.665461 
2826.000000	81.662124 
2825.000000	81.662133 
2824.000000	81.671129 
2823.000000	81.688691 
2822.000000	81.708548 
2821.000000	81.723761 
2820.000000	81.731428 
2819.000000	81.733090 
2818.000000	81.732109 
2817.000000	81.731256 
2816.000000	81.731964 
2815.000000	81.734688 
2814.000000	81.739200 
2813.000000	81.744475 
2812.000000	81.748973 
2811.000000	81.751879 
2810.000000	81.754088 
2809.000000	81.757361 
2808.000000	81.762344 
2807.000000	81.767960 
2806.000000	81.772700 
2805.000000	81.775879 
2804.000000	81.777787 
2803.000000	81.779577 
2802.000000	81.782955 
2801.000000	81.788883 
2800.000000	81.796149 
2799.000000	81.802154 
2798.000000	81.805489 
2797.000000	81.806869 
2796.000000	81.807739 
2795.000000	81.808883 
2794.000000	81.810407 
2793.000000	81.812400 
2792.000000	81.815095 
2791.000000	81.818568 
2790.000000	81.822646 
2789.000000	81.827088 
2788.000000	81.831647 
2787.000000	81.835882 
2786.000000	81.839256 
2785.000000	81.841655 
2784.000000	81.843662 
2783.000000	81.846046 
2782.000000	81.848955 
2781.000000	81.851795 
2780.000000	81.853972 
2779.000000	81.855515 
2778.000000	81.856918 
2777.000000	81.858573 
2776.000000	81.860465 
2775.000000	81.862463 
2774.000000	81.864692 
2773.000000	81.867404 
2772.000000	81.870568 
2771.000000	81.873786 
2770.000000	81.876620 
2769.000000	81.878844 
2768.000000	81.880398 
2767.000000	81.881426 
2766.000000	81.882462 
2765.000000	81.884212 
2764.000000	81.886905 
2763.000000	81.889984 
2762.000000	81.892568 
2761.000000	81.894319 
2760.000000	81.895582 
2759.000000	81.896894 
2758.000000	81.898496 
2757.000000	81.900343 
2756.000000	81.902364 
2755.000000	81.904530 
2754.000000	81.906761 
2753.000000	81.908920 
2752.000000	81.910907 
2751.000000	81.912730 
2750.000000	81.914495 
2749.000000	81.916344 
2748.000000	81.918389 
2747.000000	81.920676 
2746.000000	81.923143 
2745.000000	81.925592 
2744.000000	81.927800 
2743.000000	81.929728 
2742.000000	81.931616 
2741.000000	81.933789 
2740.000000	81.936332 
2739.000000	81.939003 
2738.000000	81.941491 
2737.000000	81.943742 
2736.000000	81.945878 
2735.000000	81.947945 
2734.000000	81.949883 
2733.000000	81.951737 
2732.000000	81.953651 
2731.000000	81.955645 
2730.000000	81.957629 
2729.000000	81.959643 
2728.000000	81.961868 
2727.000000	81.964343 
2726.000000	81.966801 
2725.000000	81.968925 
2724.000000	81.970643 
2723.000000	81.972101 
2722.000000	81.973521 
2721.000000	81.975173 
2720.000000	81.977286 
2719.000000	81.979790 
2718.000000	81.982200 
2717.000000	81.984056 
2716.000000	81.985385 
2715.000000	81.986604 
2714.000000	81.988020 
2713.000000	81.989582 
2712.000000	81.991134 
2711.000000	81.992640 
2710.000000	81.994127 
2709.000000	81.995640 
2708.000000	81.997284 
2707.000000	81.999122 
2706.000000	82.001019 
2705.000000	82.002841 
2704.000000	82.004788 
2703.000000	82.007170 
2702.000000	82.009759 
2701.000000	82.011743 
2700.000000	82.012560 
2699.000000	82.012456 
2698.000000	82.012145 
2697.000000	82.012200 
2696.000000	82.012784 
2695.000000	82.013702 
2694.000000	82.014509 
2693.000000	82.014926 
2692.000000	82.015459 
2691.000000	82.017233 
2690.000000	82.020788 
2689.000000	82.025043 
2688.000000	82.027991 
2687.000000	82.028671 
2686.000000	82.028005 
2685.000000	82.027717 
2684.000000	82.028435 
2683.000000	82.029274 
2682.000000	82.029198 
2681.000000	82.028264 
2680.000000	82.027365 
2679.000000	82.027027 
2678.000000	82.026798 
2677.000000	82.025901 
2676.000000	82.024350 
2675.000000	82.023204 
2674.000000	82.023485 
2673.000000	82.025007 
2672.000000	82.026582 
2671.000000	82.027495 
2670.000000	82.028405 
2669.000000	82.030402 
2668.000000	82.033448 
2667.000000	82.036271 
2666.000000	82.037768 
2665.000000	82.038033 
2664.000000	82.037928 
2663.000000	82.038220 
2662.000000	82.039279 
2661.000000	82.041087 
2660.000000	82.042994 
2659.000000	82.043902 
2658.000000	82.043271 
2657.000000	82.041798 
2656.000000	82.040730 
2655.000000	82.040525 
2654.000000	82.040718 
2653.000000	82.040894 
2652.000000	82.041119 
2651.000000	82.041439 
2650.000000	82.041604 
2649.000000	82.041530 
2648.000000	82.041512 
2647.000000	82.041715 
2646.000000	82.041827 
2645.000000	82.041543 
2644.000000	82.041090 
2643.000000	82.040957 
2642.000000	82.041293 
2641.000000	82.041772 
2640.000000	82.041957 
2639.000000	82.041680 
2638.000000	82.041126 
2637.000000	82.040689 
2636.000000	82.040646 
2635.000000	82.040936 
2634.000000	82.041265 
2633.000000	82.041392 
2632.000000	82.041345 
2631.000000	82.041281 
2630.000000	82.041275 
2629.000000	82.041271 
2628.000000	82.041214 
2627.000000	82.041140 
2626.000000	82.041123 
2625.000000	82.041174 
2624.000000	82.041233 
2623.000000	82.041247 
2622.000000	82.041203 
2621.000000	82.041097 
2620.000000	82.040928 
2619.000000	82.040730 
2618.000000	82.040572 
2617.000000	82.040489 
2616.000000	82.040453 
2615.000000	82.040387 
2614.000000	82.040239 
2613.000000	82.040018 
2612.000000	82.039781 
2611.000000	82.039584 
2610.000000	82.039448 
2609.000000	82.039378 
2608.000000	82.039401 
2607.000000	82.039594 
2606.000000	82.040010 
2605.000000	82.040522 
2604.000000	82.040845 
2603.000000	82.040832 
2602.000000	82.040707 
2601.000000	82.040836 
2600.000000	82.041163 
2599.000000	82.041183 
2598.000000	82.040616 
2597.000000	82.039798 
2596.000000	82.039345 
2595.000000	82.039482 
2594.000000	82.039926 
2593.000000	82.040217 
2592.000000	82.040078 
2591.000000	82.039488 
2590.000000	82.038628 
2589.000000	82.037806 
2588.000000	82.037248 
2587.000000	82.036976 
2586.000000	82.036918 
2585.000000	82.037013 
2584.000000	82.037087 
2583.000000	82.036790 
2582.000000	82.035950 
2581.000000	82.034919 
2580.000000	82.034275 
2579.000000	82.034163 
2578.000000	82.034206 
2577.000000	82.034095 
2576.000000	82.033983 
2575.000000	82.034188 
2574.000000	82.034810 
2573.000000	82.035729 
2572.000000	82.036686 
2571.000000	82.037292 
2570.000000	82.037299 
2569.000000	82.036900 
2568.000000	82.036492 
2567.000000	82.036038 
2566.000000	82.035092 
2565.000000	82.033552 
2564.000000	82.031984 
2563.000000	82.030996 
2562.000000	82.030574 
2561.000000	82.030360 
2560.000000	82.030275 
2559.000000	82.030489 
2558.000000	82.030877 
2557.000000	82.030939 
2556.000000	82.030389 
2555.000000	82.029539 
2554.000000	82.028982 
2553.000000	82.028912 
2552.000000	82.028942 
2551.000000	82.028612 
2550.000000	82.027942 
2549.000000	82.027376 
2548.000000	82.027235 
2547.000000	82.027393 
2546.000000	82.027468 
2545.000000	82.027266 
2544.000000	82.026904 
2543.000000	82.026561 
2542.000000	82.026298 
2541.000000	82.026092 
2540.000000	82.025923 
2539.000000	82.025774 
2538.000000	82.025598 
2537.000000	82.025334 
2536.000000	82.024955 
2535.000000	82.024490 
2534.000000	82.024010 
2533.000000	82.023594 
2532.000000	82.023264 
2531.000000	82.022959 
2530.000000	82.022580 
2529.000000	82.022091 
2528.000000	82.021534 
2527.000000	82.020964 
2526.000000	82.020394 
2525.000000	82.019819 
2524.000000	82.019274 
2523.000000	82.018816 
2522.000000	82.018458 
2521.000000	82.018121 
2520.000000	82.017704 
2519.000000	82.017192 
2518.000000	82.016645 
2517.000000	82.016129 
2516.000000	82.015659 
2515.000000	82.015219 
2514.000000	82.014799 
2513.000000	82.014382 
2512.000000	82.013955 
2511.000000	82.013551 
2510.000000	82.013260 
2509.000000	82.013107 
2508.000000	82.012904 
2507.000000	82.012347 
2506.000000	82.011384 
2505.000000	82.010463 
2504.000000	82.010207 
2503.000000	82.010779 
2502.000000	82.011617 
2501.000000	82.011917 
2500.000000	82.011409 
2499.000000	82.010443 
2498.000000	82.009547 
2497.000000	82.008958 
2496.000000	82.008468 
2495.000000	82.007577 
2494.000000	82.005923 
2493.000000	82.003799 
2492.000000	82.002115 
2491.000000	82.001524 
2490.000000	82.001745 
2489.000000	82.001921 
2488.000000	82.001660 
2487.000000	82.001313 
2486.000000	82.001205 
2485.000000	82.001102 
2484.000000	82.000614 
2483.000000	81.999784 
2482.000000	81.998965 
2481.000000	81.998322 
2480.000000	81.997785 
2479.000000	81.997413 
2478.000000	81.997474 
2477.000000	81.998141 
2476.000000	81.999280 
2475.000000	82.000517 
2474.000000	82.001412 
2473.000000	82.001618 
2472.000000	82.001106 
2471.000000	82.000276 
2470.000000	81.999660 
2469.000000	81.999411 
2468.000000	81.999222 
2467.000000	81.998824 
2466.000000	81.998335 
2465.000000	81.997985 
2464.000000	81.997628 
2463.000000	81.996797 
2462.000000	81.995213 
2461.000000	81.993152 
2460.000000	81.991326 
2459.000000	81.990346 
2458.000000	81.990308 
2457.000000	81.990764 
2456.000000	81.991020 
2455.000000	81.990678 
2454.000000	81.989849 
2453.000000	81.988861 
2452.000000	81.987902 
2451.000000	81.986993 
2450.000000	81.986183 
2449.000000	81.985533 
2448.000000	81.984977 
2447.000000	81.984362 
2446.000000	81.983637 
2445.000000	81.982881 
2444.000000	81.982161 
2443.000000	81.981450 
2442.000000	81.980706 
2441.000000	81.979935 
2440.000000	81.979122 
2439.000000	81.978213 
2438.000000	81.977228 
2437.000000	81.976321 
2436.000000	81.975624 
2435.000000	81.975101 
2434.000000	81.974561 
2433.000000	81.973849 
2432.000000	81.972972 
2431.000000	81.972019 
2430.000000	81.971061 
2429.000000	81.970137 
2428.000000	81.969286 
2427.000000	81.968512 
2426.000000	81.967732 
2425.000000	81.966841 
2424.000000	81.965825 
2423.000000	81.964833 
2422.000000	81.964110 
2421.000000	81.963703 
2420.000000	81.963175 
2419.000000	81.961886 
2418.000000	81.959790 
2417.000000	81.957725 
2416.000000	81.956489 
2415.000000	81.955852 
2414.000000	81.955032 
2413.000000	81.953969 
2412.000000	81.953345 
2411.000000	81.953454 
2410.000000	81.953894 
2409.000000	81.954477 
2408.000000	81.955611 
2407.000000	81.957440 
2406.000000	81.959190 
2405.000000	81.959716 
2404.000000	81.958424 
2403.000000	81.955538 
2402.000000	81.952135 
2401.000000	81.949655 
2400.000000	81.948764 
2399.000000	81.948741 
2398.000000	81.948279 
2397.000000	81.946890 
2396.000000	81.945227 
2395.000000	81.944254 
2394.000000	81.944557 
2393.000000	81.945985 
2392.000000	81.947348 
2391.000000	81.947007 
2390.000000	81.944297 
2389.000000	81.940814 
2388.000000	81.938672 
2387.000000	81.937882 
2386.000000	81.937157 
2385.000000	81.935696 
2384.000000	81.933763 
2383.000000	81.931898 
2382.000000	81.930481 
2381.000000	81.930026 
2380.000000	81.930991 
2379.000000	81.933022 
2378.000000	81.935035 
2377.000000	81.936360 
2376.000000	81.937289 
2375.000000	81.938307 
2374.000000	81.939429 
2373.000000	81.940310 
2372.000000	81.940620 
2371.000000	81.940151 
2370.000000	81.939092 
2369.000000	81.938191 
2368.000000	81.938067 
2367.000000	81.938383 
2366.000000	81.938435 
2365.000000	81.938256 
2364.000000	81.938262 
2363.000000	81.937951 
2362.000000	81.936671 
2361.000000	81.935452 
2360.000000	81.935741 
2359.000000	81.937430 
2358.000000	81.939445 
2357.000000	81.941209 
2356.000000	81.943104 
2355.000000	81.944722 
2354.000000	81.946263 
2353.000000	81.947808 
2352.000000	81.948072 
2351.000000	81.945435 
2350.000000	81.939417 
2349.000000	81.931603 
2348.000000	81.924620 
2347.000000	81.921132 
2346.000000	81.922021 
2345.000000	81.925172 
2344.000000	81.927407 
2343.000000	81.927185 
2342.000000	81.925586 
2341.000000	81.923853 
2340.000000	81.922456 
2339.000000	81.921467 
2338.000000	81.920672 
2337.000000	81.920078 
2336.000000	81.919309 
2335.000000	81.918420 
2334.000000	81.917568 
2333.000000	81.917368 
2332.000000	81.917312 
2331.000000	81.917141 
2330.000000	81.915992 
2329.000000	81.914235 
2328.000000	81.911818 
2327.000000	81.909520 
2326.000000	81.907908 
2325.000000	81.907103 
2324.000000	81.906808 
2323.000000	81.906601 
2322.000000	81.906546 
2321.000000	81.906791 
2320.000000	81.907098 
2319.000000	81.907424 
2318.000000	81.907175 
2317.000000	81.906429 
2316.000000	81.905066 
2315.000000	81.904232 
2314.000000	81.904326 
2313.000000	81.905608 
2312.000000	81.906915 
2311.000000	81.907806 
2310.000000	81.908003 
2309.000000	81.908273 
2308.000000	81.908998 
2307.000000	81.910840 
2306.000000	81.913427 
2305.000000	81.916251 
2304.000000	81.917697 
2303.000000	81.917505 
2302.000000	81.915977 
2301.000000	81.914375 
2300.000000	81.913294 
2299.000000	81.914082 
2298.000000	81.915915 
2297.000000	81.917547 
2296.000000	81.917484 
2295.000000	81.916553 
2294.000000	81.916111 
2293.000000	81.916876 
2292.000000	81.917937 
2291.000000	81.918268 
2290.000000	81.917795 
2289.000000	81.917154 
2288.000000	81.916953 
2287.000000	81.917110 
2286.000000	81.917187 
2285.000000	81.916681 
2284.000000	81.915705 
2283.000000	81.914667 
2282.000000	81.913834 
2281.000000	81.913053 
2280.000000	81.912278 
2279.000000	81.911791 
2278.000000	81.911841 
2277.000000	81.912214 
2276.000000	81.912379 
2275.000000	81.912121 
2274.000000	81.911680 
2273.000000	81.911396 
2272.000000	81.911326 
2271.000000	81.911325 
2270.000000	81.911214 
2269.000000	81.910872 
2268.000000	81.910261 
2267.000000	81.909500 
2266.000000	81.908827 
2265.000000	81.908399 
2264.000000	81.908159 
2263.000000	81.907916 
2262.000000	81.907556 
2261.000000	81.907124 
2260.000000	81.906759 
2259.000000	81.906548 
2258.000000	81.906472 
2257.000000	81.906389 
2256.000000	81.906126 
2255.000000	81.905625 
2254.000000	81.904961 
2253.000000	81.904330 
2252.000000	81.903897 
2251.000000	81.903709 
2250.000000	81.903664 
2249.000000	81.903562 
2248.000000	81.903247 
2247.000000	81.902744 
2246.000000	81.902315 
2245.000000	81.902235 
2244.000000	81.902518 
2243.000000	81.902905 
2242.000000	81.903127 
2241.000000	81.903161 
2240.000000	81.903195 
2239.000000	81.903414 
2238.000000	81.903841 
2237.000000	81.904342 
2236.000000	81.904728 
2235.000000	81.904885 
2234.000000	81.904869 
2233.000000	81.904899 
2232.000000	81.905183 
2231.000000	81.905757 
2230.000000	81.906469 
2229.000000	81.907093 
2228.000000	81.907475 
2227.000000	81.907596 
2226.000000	81.907538 
2225.000000	81.907424 
2224.000000	81.907308 
2223.000000	81.907187 
2222.000000	81.907097 
2221.000000	81.907098 
2220.000000	81.907174 
2219.000000	81.907236 
2218.000000	81.907278 
2217.000000	81.907429 
2216.000000	81.907760 
2215.000000	81.908125 
2214.000000	81.908315 
2213.000000	81.908305 
2212.000000	81.908260 
2211.000000	81.908327 
2210.000000	81.908474 
2209.000000	81.908568 
2208.000000	81.908529 
2207.000000	81.908378 
2206.000000	81.908192 
2205.000000	81.908051 
2204.000000	81.907977 
2203.000000	81.907928 
2202.000000	81.907848 
2201.000000	81.907697 
2200.000000	81.907467 
2199.000000	81.907181 
2198.000000	81.906874 
2197.000000	81.906566 
2196.000000	81.906258 
2195.000000	81.905943 
2194.000000	81.905617 
2193.000000	81.905280 
2192.000000	81.904937 
2191.000000	81.904591 
2190.000000	81.904244 
2189.000000	81.903896 
2188.000000	81.903548 
2187.000000	81.903201 
2186.000000	81.902854 
2185.000000	81.902509 
2184.000000	81.902170 
2183.000000	81.901842 
2182.000000	81.901521 
2181.000000	81.901199 
2180.000000	81.900869 
2179.000000	81.900531 
2178.000000	81.900189 
2177.000000	81.899844 
2176.000000	81.899496 
2175.000000	81.899140 
2174.000000	81.898769 
2173.000000	81.898381 
2172.000000	81.897976 
2171.000000	81.897560 
2170.000000	81.897139 
2169.000000	81.896718 
2168.000000	81.896299 
2167.000000	81.895879 
2166.000000	81.895453 
2165.000000	81.895018 
2164.000000	81.894573 
2163.000000	81.894122 
2162.000000	81.893665 
2161.000000	81.893201 
2160.000000	81.892726 
2159.000000	81.892239 
2158.000000	81.891742 
2157.000000	81.891235 
2156.000000	81.890724 
2155.000000	81.890208 
2154.000000	81.889684 
2153.000000	81.889147 
2152.000000	81.888589 
2151.000000	81.888006 
2150.000000	81.887402 
2149.000000	81.886782 
2148.000000	81.886155 
2147.000000	81.885521 
2146.000000	81.884879 
2145.000000	81.884225 
2144.000000	81.883562 
2143.000000	81.882900 
2142.000000	81.882248 
2141.000000	81.881608 
2140.000000	81.880976 
2139.000000	81.880346 
2138.000000	81.879716 
2137.000000	81.879087 
2136.000000	81.878462 
2135.000000	81.877841 
2134.000000	81.877223 
2133.000000	81.876607 
2132.000000	81.875994 
2131.000000	81.875387 
2130.000000	81.874793 
2129.000000	81.874217 
2128.000000	81.873661 
2127.000000	81.873121 
2126.000000	81.872596 
2125.000000	81.872086 
2124.000000	81.871593 
2123.000000	81.871121 
2122.000000	81.870672 
2121.000000	81.870251 
2120.000000	81.869855 
2119.000000	81.869477 
2118.000000	81.869114 
2117.000000	81.868763 
2116.000000	81.868433 
2115.000000	81.868132 
2114.000000	81.867860 
2113.000000	81.867616 
2112.000000	81.867393 
2111.000000	81.867189 
2110.000000	81.867004 
2109.000000	81.866839 
2108.000000	81.866700 
2107.000000	81.866587 
2106.000000	81.866498 
2105.000000	81.866424 
2104.000000	81.866357 
2103.000000	81.866299 
2102.000000	81.866259 
2101.000000	81.866238 
2100.000000	81.866232 
2099.000000	81.866229 
2098.000000	81.866221 
2097.000000	81.866209 
2096.000000	81.866187 
2095.000000	81.866162 
2094.000000	81.866149 
2093.000000	81.866163 
2092.000000	81.866193 
2091.000000	81.866184 
2090.000000	81.866073 
2089.000000	81.865854 
2088.000000	81.865609 
2087.000000	81.865456 
2086.000000	81.865475 
2085.000000	81.865675 
2084.000000	81.865994 
2083.000000	81.866318 
2082.000000	81.866570 
2081.000000	81.866796 
2080.000000	81.867132 
2079.000000	81.867567 
2078.000000	81.867788 
2077.000000	81.867459 
2076.000000	81.866597 
2075.000000	81.865621 
2074.000000	81.865005 
2073.000000	81.864874 
2072.000000	81.864962 
2071.000000	81.864843 
2070.000000	81.864231 
2069.000000	81.863196 
2068.000000	81.862151 
2067.000000	81.861500 
2066.000000	81.861240 
2065.000000	81.861002 
2064.000000	81.860512 
2063.000000	81.859899 
2062.000000	81.859412 
2061.000000	81.858991 
2060.000000	81.858347 
2059.000000	81.857349 
2058.000000	81.856114 
2057.000000	81.854811 
2056.000000	81.853501 
2055.000000	81.852243 
2054.000000	81.851170 
2053.000000	81.850337 
2052.000000	81.849587 
2051.000000	81.848653 
2050.000000	81.847402 
2049.000000	81.845947 
2048.000000	81.844522 
2047.000000	81.843259 
2046.000000	81.842117 
2045.000000	81.840988 
2044.000000	81.839792 
2043.000000	81.838483 
2042.000000	81.837046 
2041.000000	81.835529 
2040.000000	81.834015 
2039.000000	81.832539 
2038.000000	81.831077 
2037.000000	81.829601 
2036.000000	81.828110 
2035.000000	81.826608 
2034.000000	81.825098 
2033.000000	81.823586 
2032.000000	81.822073 
2031.000000	81.820561 
2030.000000	81.819052 
2029.000000	81.817544 
2028.000000	81.816040 
2027.000000	81.814540 
2026.000000	81.813047 
2025.000000	81.811561 
2024.000000	81.810082 
2023.000000	81.808605 
2022.000000	81.807128 
2021.000000	81.805649 
2020.000000	81.804174 
2019.000000	81.802712 
2018.000000	81.801271 
2017.000000	81.799851 
2016.000000	81.798446 
2015.000000	81.797049 
2014.000000	81.795657 
2013.000000	81.794271 
2012.000000	81.792898 
2011.000000	81.791546 
2010.000000	81.790224 
2009.000000	81.788932 
2008.000000	81.787661 
2007.000000	81.786393 
2006.000000	81.785127 
2005.000000	81.783876 
2004.000000	81.782639 
2003.000000	81.781396 
2002.000000	81.780169 
2001.000000	81.779024 
2000.000000	81.777975 
1999.000000	81.776928 
1998.000000	81.775810 
1997.000000	81.774661 
1996.000000	81.773590 
1995.000000	81.772641 
1994.000000	81.771775 
1993.000000	81.770925 
1992.000000	81.770051 
1991.000000	81.769161 
1990.000000	81.768287 
1989.000000	81.767421 
1988.000000	81.766502 
1987.000000	81.765488 
1986.000000	81.764415 
1985.000000	81.763366 
1984.000000	81.762377 
1983.000000	81.761405 
1982.000000	81.760395 
1981.000000	81.759346 
1980.000000	81.758308 
1979.000000	81.757342 
1978.000000	81.756463 
1977.000000	81.755639 
1976.000000	81.754790 
1975.000000	81.753839 
1974.000000	81.752772 
1973.000000	81.751637 
1972.000000	81.750523 
1971.000000	81.749482 
1970.000000	81.748507 
1969.000000	81.747545 
1968.000000	81.746525 
1967.000000	81.745413 
1966.000000	81.744231 
1965.000000	81.743038 
1964.000000	81.741874 
1963.000000	81.740723 
1962.000000	81.739536 
1961.000000	81.738281 
1960.000000	81.736975 
1959.000000	81.735664 
1958.000000	81.734376 
1957.000000	81.733104 
1956.000000	81.731822 
1955.000000	81.730504 
1954.000000	81.729150 
1953.000000	81.727776 
1952.000000	81.726413 
1951.000000	81.725088 
1950.000000	81.723812 
1949.000000	81.722573 
1948.000000	81.721338 
1947.000000	81.720079 
1946.000000	81.718791 
1945.000000	81.717486 
1944.000000	81.716202 
1943.000000	81.714974 
1942.000000	81.713806 
1941.000000	81.712669 
1940.000000	81.711535 
1939.000000	81.710398 
1938.000000	81.709245 
1937.000000	81.708055 
1936.000000	81.706817 
1935.000000	81.705564 
1934.000000	81.704359 
1933.000000	81.703243 
1932.000000	81.702196 
1931.000000	81.701160 
1930.000000	81.700117 
1929.000000	81.699112 
1928.000000	81.698158 
1927.000000	81.697179 
1926.000000	81.696134 
1925.000000	81.695129 
1924.000000	81.694337 
1923.000000	81.693762 
1922.000000	81.693173 
1921.000000	81.692361 
1920.000000	81.691353 
1919.000000	81.690316 
1918.000000	81.689377 
1917.000000	81.688587 
1916.000000	81.687986 
1915.000000	81.687638 
1914.000000	81.687562 
1913.000000	81.687643 
1912.000000	81.687677 
1911.000000	81.687476 
1910.000000	81.687033 
1909.000000	81.686473 
1908.000000	81.685732 
1907.000000	81.684492 
1906.000000	81.682604 
1905.000000	81.680525 
1904.000000	81.679178 
1903.000000	81.679112 
1902.000000	81.680121 
1901.000000	81.681448 
1900.000000	81.682203 
1899.000000	81.681999 
1898.000000	81.681238 
1897.000000	81.680680 
1896.000000	81.680598 
1895.000000	81.680499 
1894.000000	81.680046 
1893.000000	81.679788 
1892.000000	81.680445 
1891.000000	81.681958 
1890.000000	81.683651 
1889.000000	81.685004 
1888.000000	81.685861 
1887.000000	81.686248 
1886.000000	81.686325 
1885.000000	81.686299 
1884.000000	81.686134 
1883.000000	81.685560 
1882.000000	81.684859 
1881.000000	81.685196 
1880.000000	81.687401 
1879.000000	81.690771 
1878.000000	81.693445 
1877.000000	81.694147 
1876.000000	81.693337 
1875.000000	81.692524 
1874.000000	81.692641 
1873.000000	81.693500 
1872.000000	81.694498 
1871.000000	81.695425 
1870.000000	81.696746 
1869.000000	81.699046 
1868.000000	81.701761 
1867.000000	81.703556 
1866.000000	81.704299 
1865.000000	81.704948 
1864.000000	81.706131 
1863.000000	81.707916 
1862.000000	81.710464 
1861.000000	81.714150 
1860.000000	81.718713 
1859.000000	81.722957 
1858.000000	81.725849 
1857.000000	81.727398 
1856.000000	81.728364 
1855.000000	81.729705 
1854.000000	81.732204 
1853.000000	81.736001 
1852.000000	81.740118 
1851.000000	81.743203 
1850.000000	81.744908 
1849.000000	81.745906 
1848.000000	81.746986 
1847.000000	81.748558 
1846.000000	81.750879 
1845.000000	81.754018 
1844.000000	81.757407 
1843.000000	81.760124 
1842.000000	81.762115 
1841.000000	81.764242 
1840.000000	81.766648 
1839.000000	81.768563 
1838.000000	81.769776 
1837.000000	81.771084 
1836.000000	81.772893 
1835.000000	81.774517 
1834.000000	81.775667 
1833.000000	81.777438 
1832.000000	81.780905 
1831.000000	81.785159 
1830.000000	81.787492 
1829.000000	81.786210 
1828.000000	81.783301 
1827.000000	81.782476 
1826.000000	81.784955 
1825.000000	81.788699 
1824.000000	81.791089 
1823.000000	81.791835 
1822.000000	81.792928 
1821.000000	81.795953 
1820.000000	81.800582 
1819.000000	81.805178 
1818.000000	81.808031 
1817.000000	81.808554 
1816.000000	81.807408 
1815.000000	81.805818 
1814.000000	81.805623 
1813.000000	81.808891 
1812.000000	81.815872 
1811.000000	81.822745 
1810.000000	81.824308 
1809.000000	81.820653 
1808.000000	81.816920 
1807.000000	81.816428 
1806.000000	81.818645 
1805.000000	81.822829 
1804.000000	81.829495 
1803.000000	81.837899 
1802.000000	81.845298 
1801.000000	81.849997 
1800.000000	81.853039 
1799.000000	81.856294 
1798.000000	81.860697 
1797.000000	81.866120 
1796.000000	81.871318 
1795.000000	81.875183 
1794.000000	81.879229 
1793.000000	81.887970 
1792.000000	81.904506 
1791.000000	81.924209 
1790.000000	81.939053 
1789.000000	81.947594 
1788.000000	81.953518 
1787.000000	81.959537 
1786.000000	81.965911 
1785.000000	81.972304 
1784.000000	81.978365 
1783.000000	81.984175 
1782.000000	81.991933 
1781.000000	82.004083 
1780.000000	82.019042 
1779.000000	82.031958 
1778.000000	82.040426 
1777.000000	82.046322 
1776.000000	82.051694 
1775.000000	82.057165 
1774.000000	82.063540 
1773.000000	82.071809 
1772.000000	82.081945 
1771.000000	82.093443 
1770.000000	82.107155 
1769.000000	82.124868 
1768.000000	82.145214 
1767.000000	82.162215 
1766.000000	82.171363 
1765.000000	82.175337 
1764.000000	82.180346 
1763.000000	82.189920 
1762.000000	82.202176 
1761.000000	82.211537 
1760.000000	82.215566 
1759.000000	82.217905 
1758.000000	82.223369 
1757.000000	82.232621 
1756.000000	82.240799 
1755.000000	82.243686 
1754.000000	82.242844 
1753.000000	82.241860 
1752.000000	82.242854 
1751.000000	82.247583 
1750.000000	82.255286 
1749.000000	82.261397 
1748.000000	82.262508 
1747.000000	82.259021 
1746.000000	82.254791 
1745.000000	82.254038 
1744.000000	82.258009 
1743.000000	82.263747 
1742.000000	82.265712 
1741.000000	82.260856 
1740.000000	82.251156 
1739.000000	82.240263 
1738.000000	82.229594 
1737.000000	82.220531 
1736.000000	82.214300 
1735.000000	82.207417 
1734.000000	82.195942 
1733.000000	82.182017 
1732.000000	82.170834 
1731.000000	82.167485 
1730.000000	82.170060 
1729.000000	82.171111 
1728.000000	82.166572 
1727.000000	82.158806 
1726.000000	82.150588 
1725.000000	82.140997 
1724.000000	82.129348 
1723.000000	82.117475 
1722.000000	82.105941 
1721.000000	82.093369 
1720.000000	82.078712 
1719.000000	82.062055 
1718.000000	82.046510 
1717.000000	82.039216 
1716.000000	82.042008 
1715.000000	82.046377 
1714.000000	82.044707 
1713.000000	82.038107 
1712.000000	82.032851 
1711.000000	82.031789 
1710.000000	82.031602 
1709.000000	82.028271 
1708.000000	82.022713 
1707.000000	82.018928 
1706.000000	82.019362 
1705.000000	82.023637 
1704.000000	82.029613 
1703.000000	82.035326 
1702.000000	82.038074 
1701.000000	82.036131 
1700.000000	82.035983 
1699.000000	82.042474 
1698.000000	82.053104 
1697.000000	82.071842 
1696.000000	82.097475 
1695.000000	82.118631 
1694.000000	82.128684 
1693.000000	82.134439 
1692.000000	82.144999 
1691.000000	82.162920 
1690.000000	82.186792 
1689.000000	82.212719 
1688.000000	82.234287 
1687.000000	82.248253 
1686.000000	82.257424 
1685.000000	82.271307 
1684.000000	82.298215 
1683.000000	82.328286 
1682.000000	82.350912 
1681.000000	82.371787 
1680.000000	82.393006 
1679.000000	82.411167 
1678.000000	82.426500 
1677.000000	82.444134 
1676.000000	82.465842 
1675.000000	82.487615 
1674.000000	82.505472 
1673.000000	82.519594 
1672.000000	82.532006 
1671.000000	82.542023 
1670.000000	82.550382 
1669.000000	82.562967 
1668.000000	82.582852 
1667.000000	82.606828 
1666.000000	82.631263 
1665.000000	82.654550 
1664.000000	82.675698 
1663.000000	82.693027 
1662.000000	82.706264 
1661.000000	82.717403 
1660.000000	82.727023 
1659.000000	82.734167 
1658.000000	82.738992 
1657.000000	82.742234 
1656.000000	82.743408 
1655.000000	82.739969 
1654.000000	82.733606 
1653.000000	82.733599 
1652.000000	82.740237 
1651.000000	82.741614 
1650.000000	82.739068 
1649.000000	82.737829 
1648.000000	82.739578 
1647.000000	82.742046 
1646.000000	82.743530 
1645.000000	82.744761 
1644.000000	82.747893 
1643.000000	82.751755 
1642.000000	82.752290 
1641.000000	82.747453 
1640.000000	82.739188 
1639.000000	82.731149 
1638.000000	82.724776 
1637.000000	82.719788 
1636.000000	82.718604 
1635.000000	82.724000 
1634.000000	82.732084 
1633.000000	82.737020 
1632.000000	82.739835 
1631.000000	82.744504 
1630.000000	82.752918 
1629.000000	82.764474 
1628.000000	82.777189 
1627.000000	82.789321 
1626.000000	82.800415 
1625.000000	82.810166 
1624.000000	82.817143 
1623.000000	82.820375 
1622.000000	82.821287 
1621.000000	82.822350 
1620.000000	82.825517 
1619.000000	82.832368 
1618.000000	82.843389 
1617.000000	82.857443 
1616.000000	82.871292 
1615.000000	82.881944 
1614.000000	82.889490 
1613.000000	82.894893 
1612.000000	82.897774 
1611.000000	82.898525 
1610.000000	82.900009 
1609.000000	82.904217 
1608.000000	82.909931 
1607.000000	82.916810 
1606.000000	82.927283 
1605.000000	82.941509 
1604.000000	82.954875 
1603.000000	82.963787 
1602.000000	82.969450 
1601.000000	82.974263 
1600.000000	82.979185 
1599.000000	82.985312 
1598.000000	82.993322 
1597.000000	83.000086 
1596.000000	83.000126 
1595.000000	82.992329 
1594.000000	82.982469 
1593.000000	82.976527 
1592.000000	82.974395 
1591.000000	82.972770 
1590.000000	82.970603 
1589.000000	82.968567 
1588.000000	82.966020 
1587.000000	82.961918 
1586.000000	82.956707 
1585.000000	82.950875 
1584.000000	82.942681 
1583.000000	82.930930 
1582.000000	82.918758 
1581.000000	82.909722 
1580.000000	82.902902 
1579.000000	82.895338 
1578.000000	82.884743 
1577.000000	82.868067 
1576.000000	82.844326 
1575.000000	82.819872 
1574.000000	82.801251 
1573.000000	82.787549 
1572.000000	82.773752 
1571.000000	82.756730 
1570.000000	82.740290 
1569.000000	82.730049 
1568.000000	82.723314 
1567.000000	82.715514 
1566.000000	82.706556 
1565.000000	82.696632 
1564.000000	82.684729 
1563.000000	82.671359 
1562.000000	82.658983 
1561.000000	82.645460 
1560.000000	82.623625 
1559.000000	82.602627 
1558.000000	82.595782 
1557.000000	82.595662 
1556.000000	82.598103 
1555.000000	82.601599 
1554.000000	82.603177 
1553.000000	82.599582 
1552.000000	82.593265 
1551.000000	82.589977 
1550.000000	82.591582 
1549.000000	82.594476 
1548.000000	82.596167 
1547.000000	82.598994 
1546.000000	82.606165 
1545.000000	82.618555 
1544.000000	82.634743 
1543.000000	82.653427 
1542.000000	82.674400 
1541.000000	82.695721 
1540.000000	82.707899 
1539.000000	82.700134 
1538.000000	82.674828 
1537.000000	82.640360 
1536.000000	82.600051 
1535.000000	82.553344 
1534.000000	82.503937 
1533.000000	82.462212 
1532.000000	82.430875 
1531.000000	82.402997 
1530.000000	82.374912 
1529.000000	82.349329 
1528.000000	82.330003 
1527.000000	82.316524 
1526.000000	82.304945 
1525.000000	82.292822 
1524.000000	82.281486 
1523.000000	82.273101 
1522.000000	82.268337 
1521.000000	82.264280 
1520.000000	82.254641 
1519.000000	82.239174 
1518.000000	82.226103 
1517.000000	82.221488 
1516.000000	82.222398 
1515.000000	82.221223 
1514.000000	82.215739 
1513.000000	82.207854 
1512.000000	82.199168 
1511.000000	82.189943 
1510.000000	82.179697 
1509.000000	82.169393 
1508.000000	82.164863 
1507.000000	82.171527 
1506.000000	82.176960 
1505.000000	82.169534 
1504.000000	82.156256 
1503.000000	82.145962 
1502.000000	82.143059 
1501.000000	82.146963 
1500.000000	82.154265 
1499.000000	82.160499 
1498.000000	82.160198 
1497.000000	82.151439 
1496.000000	82.140648 
1495.000000	82.133510 
1494.000000	82.128062 
1493.000000	82.122055 
1492.000000	82.118145 
1491.000000	82.122783 
1490.000000	82.138717 
1489.000000	82.158107 
1488.000000	82.170491 
1487.000000	82.172621 
1486.000000	82.167580 
1485.000000	82.160326 
1484.000000	82.154323 
1483.000000	82.152673 
1482.000000	82.157886 
1481.000000	82.168702 
1480.000000	82.180722 
1479.000000	82.191614 
1478.000000	82.203940 
1477.000000	82.221822 
1476.000000	82.246125 
1475.000000	82.273145 
1474.000000	82.301284 
1473.000000	82.334139 
1472.000000	82.370871 
1471.000000	82.403335 
1470.000000	82.428240 
1469.000000	82.450211 
1468.000000	82.473777 
1467.000000	82.499317 
1466.000000	82.524368 
1465.000000	82.545188 
1464.000000	82.556890 
1463.000000	82.557708 
1462.000000	82.550637 
1461.000000	82.540652 
1460.000000	82.532624 
1459.000000	82.529413 
1458.000000	82.526795 
1457.000000	82.510720 
1456.000000	82.473713 
1455.000000	82.428337 
1454.000000	82.391234 
1453.000000	82.366934 
1452.000000	82.350996 
1451.000000	82.339089 
1450.000000	82.332932 
1449.000000	82.337742 
1448.000000	82.354930 
1447.000000	82.376129 
1446.000000	82.390329 
1445.000000	82.393638 
1444.000000	82.388728 
1443.000000	82.381182 
1442.000000	82.375392 
1441.000000	82.372095 
1440.000000	82.371056 
1439.000000	82.374081 
1438.000000	82.382129 
1437.000000	82.391957 
1436.000000	82.397023 
1435.000000	82.394023 
1434.000000	82.387106 
1433.000000	82.382154 
1432.000000	82.380611 
1431.000000	82.380310 
1430.000000	82.377257 
1429.000000	82.368292 
1428.000000	82.355193 
1427.000000	82.343059 
1426.000000	82.334893 
1425.000000	82.327717 
1424.000000	82.315753 
1423.000000	82.297623 
1422.000000	82.275737 
1421.000000	82.250864 
1420.000000	82.222351 
1419.000000	82.192273 
1418.000000	82.160140 
1417.000000	82.121328 
1416.000000	82.076424 
1415.000000	82.030248 
1414.000000	81.985448 
1413.000000	81.941327 
1412.000000	81.898087 
1411.000000	81.859054 
1410.000000	81.825322 
1409.000000	81.794305 
1408.000000	81.766576 
1407.000000	81.748222 
1406.000000	81.745400 
1405.000000	81.759050 
1404.000000	81.784972 
1403.000000	81.816924 
1402.000000	81.849458 
1401.000000	81.880305 
1400.000000	81.909206 
1399.000000	81.931110 
1398.000000	81.930327 
1397.000000	81.889509 
1396.000000	81.809306 
1395.000000	81.724424 
1394.000000	81.686197 
1393.000000	81.713308 
1392.000000	81.780605 
1391.000000	81.849614 
1390.000000	81.895929 
1389.000000	81.914420 
1388.000000	81.911649 
1387.000000	81.897357 
1386.000000	81.879505 
1385.000000	81.863642 
1384.000000	81.853874 
1383.000000	81.852437 
1382.000000	81.859005 
1381.000000	81.872005 
1380.000000	81.890260 
1379.000000	81.912541 
1378.000000	81.936938 
1377.000000	81.962113 
1376.000000	81.988626 
1375.000000	82.017711 
1374.000000	82.048767 
1373.000000	82.079536 
1372.000000	82.109896 
1371.000000	82.143105 
1370.000000	82.182183 
1369.000000	82.225317 
1368.000000	82.266211 
1367.000000	82.299980 
1366.000000	82.327388 
1365.000000	82.353597 
1364.000000	82.383670 
1363.000000	82.418398 
1362.000000	82.453093 
1361.000000	82.481937 
1360.000000	82.503580 
1359.000000	82.521197 
1358.000000	82.539167 
1357.000000	82.560410 
1356.000000	82.584958 
1355.000000	82.609793 
1354.000000	82.630490 
1353.000000	82.645345 
1352.000000	82.656644 
1351.000000	82.667003 
1350.000000	82.678374 
1349.000000	82.690617 
1348.000000	82.700396 
1347.000000	82.705273 
1346.000000	82.705662 
1345.000000	82.702609 
1344.000000	82.697217 
1343.000000	82.692981 
1342.000000	82.694681 
1341.000000	82.703007 
1340.000000	82.712531 
1339.000000	82.717804 
1338.000000	82.719670 
1337.000000	82.722652 
1336.000000	82.728263 
1335.000000	82.734009 
1334.000000	82.737650 
1333.000000	82.739839 
1332.000000	82.742727 
1331.000000	82.748204 
1330.000000	82.757175 
1329.000000	82.768344 
1328.000000	82.777945 
1327.000000	82.782794 
1326.000000	82.784228 
1325.000000	82.787115 
1324.000000	82.795580 
1323.000000	82.809742 
1322.000000	82.825180 
1321.000000	82.835837 
1320.000000	82.838796 
1319.000000	82.836932 
1318.000000	82.836108 
1317.000000	82.839955 
1316.000000	82.848226 
1315.000000	82.859010 
1314.000000	82.869960 
1313.000000	82.877839 
1312.000000	82.879745 
1311.000000	82.876169 
1310.000000	82.871378 
1309.000000	82.869599 
1308.000000	82.871416 
1307.000000	82.874194 
1306.000000	82.875446 
1305.000000	82.874966 
1304.000000	82.874883 
1303.000000	82.877821 
1302.000000	82.883788 
1301.000000	82.888869 
1300.000000	82.888196 
1299.000000	82.880703 
1298.000000	82.870044 
1297.000000	82.860958 
1296.000000	82.855743 
1295.000000	82.854292 
1294.000000	82.855420 
1293.000000	82.857101 
1292.000000	82.857027 
1291.000000	82.854206 
1290.000000	82.849289 
1289.000000	82.842730 
1288.000000	82.833605 
1287.000000	82.821031 
1286.000000	82.805957 
1285.000000	82.790222 
1284.000000	82.774971 
1283.000000	82.761061 
1282.000000	82.749067 
1281.000000	82.738288 
1280.000000	82.726982 
1279.000000	82.713503 
1278.000000	82.697036 
1277.000000	82.678059 
1276.000000	82.658028 
1275.000000	82.638118 
1274.000000	82.618268 
1273.000000	82.597940 
1272.000000	82.577757 
1271.000000	82.559049 
1270.000000	82.541399 
1269.000000	82.522407 
1268.000000	82.501107 
1267.000000	82.479865 
1266.000000	82.460812 
1265.000000	82.441436 
1264.000000	82.416042 
1263.000000	82.381451 
1262.000000	82.340074 
1261.000000	82.297673 
1260.000000	82.258896 
1259.000000	82.224222 
1258.000000	82.190174 
1257.000000	82.153570 
1256.000000	82.116354 
1255.000000	82.084306 
1254.000000	82.059532 
1253.000000	82.036788 
1252.000000	82.010436 
1251.000000	81.983515 
1250.000000	81.965810 
1249.000000	81.963299 
1248.000000	81.973030 
1247.000000	81.986783 
1246.000000	81.994781 
1245.000000	81.986405 
1244.000000	81.955369 
1243.000000	81.910455 
1242.000000	81.876706 
1241.000000	81.876259 
1240.000000	81.907161 
1239.000000	81.942777 
1238.000000	81.955398 
1237.000000	81.938651 
1236.000000	81.904973 
1235.000000	81.868625 
1234.000000	81.835282 
1233.000000	81.805144 
1232.000000	81.778290 
1231.000000	81.754116 
1230.000000	81.730188 
1229.000000	81.705774 
1228.000000	81.684828 
1227.000000	81.672436 
1226.000000	81.669031 
1225.000000	81.670210 
1224.000000	81.671441 
1223.000000	81.670768 
1222.000000	81.667648 
1221.000000	81.661841 
1220.000000	81.653919 
1219.000000	81.645161 
1218.000000	81.636056 
1217.000000	81.625688 
1216.000000	81.612957 
1215.000000	81.597865 
1214.000000	81.581470 
1213.000000	81.564536 
1212.000000	81.545626 
1211.000000	81.520848 
1210.000000	81.487421 
1209.000000	81.448072 
1208.000000	81.409517 
1207.000000	81.374888 
1206.000000	81.339951 
1205.000000	81.299242 
1204.000000	81.253325 
1203.000000	81.206744 
1202.000000	81.160974 
1201.000000	81.113828 
1200.000000	81.064909 
1199.000000	81.016905 
1198.000000	80.971430 
1197.000000	80.927183 
1196.000000	80.881930 
1195.000000	80.833841 
1194.000000	80.781842 
1193.000000	80.726991 
1192.000000	80.672922 
1191.000000	80.621732 
1190.000000	80.570037 
1189.000000	80.513265 
1188.000000	80.453007 
1187.000000	80.395296 
1186.000000	80.341935 
1185.000000	80.288777 
1184.000000	80.232587 
1183.000000	80.173794 
1182.000000	80.111843 
1181.000000	80.043964 
1180.000000	79.970608 
1179.000000	79.896798 
1178.000000	79.825211 
1177.000000	79.751925 
1176.000000	79.671376 
1175.000000	79.582100 
1174.000000	79.486325 
1173.000000	79.387760 
1172.000000	79.290952 
1171.000000	79.198191 
1170.000000	79.105196 
1169.000000	79.004719 
1168.000000	78.896956 
1167.000000	78.792512 
1166.000000	78.703529 
1165.000000	78.636356 
1164.000000	78.593620 
1163.000000	78.576804 
1162.000000	78.583953 
1161.000000	78.609762 
1160.000000	78.649417 
1159.000000	78.696735 
1158.000000	78.737706 
1157.000000	78.753656 
1156.000000	78.734682 
1155.000000	78.685679 
1154.000000	78.617793 
1153.000000	78.539003 
1152.000000	78.454867 
1151.000000	78.371032 
1150.000000	78.289174 
1149.000000	78.205258 
1148.000000	78.117116 
1147.000000	78.029896 
1146.000000	77.949467 
1145.000000	77.874004 
1144.000000	77.796585 
1143.000000	77.713360 
1142.000000	77.625831 
1141.000000	77.537989 
1140.000000	77.453953 
1139.000000	77.375313 
1138.000000	77.298422 
1137.000000	77.217435 
1136.000000	77.131200 
1135.000000	77.043255 
1134.000000	76.954687 
1133.000000	76.862583 
1132.000000	76.766812 
1131.000000	76.671815 
1130.000000	76.579265 
1129.000000	76.485101 
1128.000000	76.386332 
1127.000000	76.284690 
1126.000000	76.181310 
1125.000000	76.074137 
1124.000000	75.962973 
1123.000000	75.850806 
1122.000000	75.737792 
1121.000000	75.619985 
1120.000000	75.495876 
1119.000000	75.367634 
1118.000000	75.235253 
1117.000000	75.097620 
1116.000000	74.959908 
1115.000000	74.830009 
1114.000000	74.705433 
1113.000000	74.573722 
1112.000000	74.428763 
1111.000000	74.277216 
1110.000000	74.125180 
1109.000000	73.969745 
1108.000000	73.809601 
1107.000000	73.651501 
1106.000000	73.500363 
1105.000000	73.353540 
1104.000000	73.208347 
1103.000000	73.066060 
1102.000000	72.925779 
1101.000000	72.782564 
1100.000000	72.635067 
1099.000000	72.486698 
1098.000000	72.338208 
1097.000000	72.187764 
1096.000000	72.037771 
1095.000000	71.891967 
1094.000000	71.743666 
1093.000000	71.577615 
1092.000000	71.387600 
1091.000000	71.184809 
1090.000000	70.985789 
1089.000000	70.798904 
1088.000000	70.624564 
1087.000000	70.459314 
1086.000000	70.295762 
1085.000000	70.127400 
1084.000000	69.957402 
1083.000000	69.794409 
1082.000000	69.637647 
1081.000000	69.477280 
1080.000000	69.312883 
1079.000000	69.159195 
1078.000000	69.028360 
1077.000000	68.918570 
1076.000000	68.825158 
1075.000000	68.749371 
1074.000000	68.689317 
1073.000000	68.634226 
1072.000000	68.572507 
1071.000000	68.491283 
1070.000000	68.364564 
1069.000000	68.164858 
1068.000000	67.902821 
1067.000000	67.642434 
1066.000000	67.454900 
1065.000000	67.359418 
1064.000000	67.318154 
1063.000000	67.274510 
1062.000000	67.183476 
1061.000000	67.019171 
1060.000000	66.782250 
1059.000000	66.509146 
1058.000000	66.257071 
1057.000000	66.065828 
1056.000000	65.934921 
1055.000000	65.834369 
1054.000000	65.731886 
1053.000000	65.613704 
1052.000000	65.487590 
1051.000000	65.369416 
1050.000000	65.267050 
1049.000000	65.178269 
1048.000000	65.100498 
1047.000000	65.034297 
1046.000000	64.978081 
1045.000000	64.928174 
1044.000000	64.884469 
1043.000000	64.848275 
1042.000000	64.813856 
1041.000000	64.769505 
1040.000000	64.709847 
1039.000000	64.644204 
1038.000000	64.593340 
1037.000000	64.579137 
1036.000000	64.610808 
1035.000000	64.674238 
1034.000000	64.739349 
1033.000000	64.783300 
1032.000000	64.798416 
1031.000000	64.775425 
1030.000000	64.701376 
1029.000000	64.592403 
1028.000000	64.510319 
1027.000000	64.515334 
1026.000000	64.603658 
1025.000000	64.713045 
1024.000000	64.789090 
1023.000000	64.823667 
1022.000000	64.831479 
1021.000000	64.821575 
1020.000000	64.801415 
1019.000000	64.783674 
1018.000000	64.773599 
1017.000000	64.764195 
1016.000000	64.752776 
1015.000000	64.747682 
1014.000000	64.752031 
1013.000000	64.756993 
1012.000000	64.758670 
1011.000000	64.766108 
1010.000000	64.785048 
1009.000000	64.808655 
1008.000000	64.831952 
1007.000000	64.861294 
1006.000000	64.901592 
1005.000000	64.946862 
1004.000000	64.991004 
1003.000000	65.036994 
1002.000000	65.089474 
1001.000000	65.148472 
1000.000000	65.213917 
999.000000	 65.284745 
998.000000	 65.351407 
997.000000	 65.403422 
996.000000	 65.447760 
995.000000	 65.504921 
994.000000	 65.582323 
993.000000	 65.665958 
992.000000	 65.742770 
991.000000	 65.815785 
990.000000	 65.891106 
989.000000	 65.966651 
988.000000	 66.043064 
987.000000	 66.131262 
986.000000	 66.238277 
985.000000	 66.356654 
984.000000	 66.475831 
983.000000	 66.594912 
982.000000	 66.719623 
981.000000	 66.854790 
980.000000	 67.004538 
979.000000	 67.171874 
978.000000	 67.351781 
977.000000	 67.532549 
976.000000	 67.709280 
975.000000	 67.889426 
974.000000	 68.082116 
973.000000	 68.288811 
972.000000	 68.505464 
971.000000	 68.725942 
970.000000	 68.942753 
969.000000	 69.152892 
968.000000	 69.363469 
967.000000	 69.583344 
966.000000	 69.809156 
965.000000	 70.027787 
964.000000	 70.231775 
963.000000	 70.423681 
962.000000	 70.607538 
961.000000	 70.786731 
960.000000	 70.969081 
959.000000	 71.161473 
958.000000	 71.357257 
957.000000	 71.539218 
956.000000	 71.697398 
955.000000	 71.836414 
954.000000	 71.966055 
953.000000	 72.093480 
952.000000	 72.223485 
951.000000	 72.355592 
950.000000	 72.480120 
949.000000	 72.587463 
948.000000	 72.682031 
947.000000	 72.777019 
946.000000	 72.874802 
945.000000	 72.963599 
944.000000	 73.035166 
943.000000	 73.094750 
942.000000	 73.151521 
941.000000	 73.209733 
940.000000	 73.272088 
939.000000	 73.340870 
938.000000	 73.411407 
937.000000	 73.473883 
936.000000	 73.525929 
935.000000	 73.575617 
934.000000	 73.629284 
933.000000	 73.684900 
932.000000	 73.739887 
931.000000	 73.796188 
930.000000	 73.854261 
929.000000	 73.910488 
928.000000	 73.964125 
927.000000	 74.019380 
926.000000	 74.077785 
925.000000	 74.135301 
924.000000	 74.188363 
923.000000	 74.235504 
922.000000	 74.273061 
921.000000	 74.298727 
920.000000	 74.319914 
919.000000	 74.348028 
918.000000	 74.382471 
917.000000	 74.410771 
916.000000	 74.427433 
915.000000	 74.442087 
914.000000	 74.465651 
913.000000	 74.500055 
912.000000	 74.546596 
911.000000	 74.612369 
910.000000	 74.699773 
909.000000	 74.798310 
908.000000	 74.895710 
907.000000	 74.992246 
906.000000	 75.097408 
905.000000	 75.217219 
904.000000	 75.350720 
903.000000	 75.494805 
902.000000	 75.646746 
901.000000	 75.803178 
900.000000	 75.959672 
899.000000	 76.111721 
898.000000	 76.257319 
897.000000	 76.399363 
896.000000	 76.541530 
895.000000	 76.678957 
894.000000	 76.799395 
893.000000	 76.900681 
892.000000	 77.001453 
891.000000	 77.124080 
890.000000	 77.268599 
889.000000	 77.412661 
888.000000	 77.535788 
887.000000	 77.634527 
886.000000	 77.716711 
885.000000	 77.793458 
884.000000	 77.876890 
883.000000	 77.972530 
882.000000	 78.071433 
881.000000	 78.162801 
880.000000	 78.257838 
879.000000	 78.386091 
878.000000	 78.560352 
877.000000	 78.757206 
876.000000	 78.940619 
875.000000	 79.095137 
874.000000	 79.228404 
873.000000	 79.353162 
872.000000	 79.478718 
871.000000	 79.612534 
870.000000	 79.757310 
869.000000	 79.907727 
868.000000	 80.056577 
867.000000	 80.201691 
866.000000	 80.343065 
865.000000	 80.478348 
864.000000	 80.606703 
863.000000	 80.732982 
862.000000	 80.862126 
861.000000	 80.992137 
860.000000	 81.117783 
859.000000	 81.238620 
858.000000	 81.358574 
857.000000	 81.479480 
856.000000	 81.598514 
855.000000	 81.709819 
854.000000	 81.806454 
853.000000	 81.885075 
852.000000	 81.952479 
851.000000	 82.023271 
850.000000	 82.105975 
849.000000	 82.194209 
848.000000	 82.274960 
847.000000	 82.340538 
846.000000	 82.388100 
845.000000	 82.414686 
844.000000	 82.421535 
843.000000	 82.418851 
842.000000	 82.415860 
841.000000	 82.407248 
840.000000	 82.379151 
839.000000	 82.329117 
838.000000	 82.272067 
837.000000	 82.225319 
836.000000	 82.193962 
835.000000	 82.170388 
834.000000	 82.140780 
833.000000	 82.093511 
832.000000	 82.031359 
831.000000	 81.977357 
830.000000	 81.958689 
829.000000	 81.979736 
828.000000	 82.017353 
827.000000	 82.045819 
826.000000	 82.059665 
825.000000	 82.068971 
824.000000	 82.081639 
823.000000	 82.097684 
822.000000	 82.113312 
821.000000	 82.121767 
820.000000	 82.114696 
819.000000	 82.089228 
818.000000	 82.050290 
817.000000	 82.001393 
816.000000	 81.937012 
815.000000	 81.848872 
814.000000	 81.735584 
813.000000	 81.599203 
812.000000	 81.434133 
811.000000	 81.226265 
810.000000	 80.963927 
809.000000	 80.645107 
808.000000	 80.274070 
807.000000	 79.856789 
806.000000	 79.402655 
805.000000	 78.928145 
804.000000	 78.455279 
803.000000	 78.004340 
802.000000	 77.588489 
801.000000	 77.218226 
800.000000	 76.909748 
799.000000	 76.681879 
798.000000	 76.542954 
797.000000	 76.487065 
796.000000	 76.503174 
795.000000	 76.577931 
794.000000	 76.687885 
793.000000	 76.802190 
792.000000	 76.901681 
791.000000	 76.988456 
790.000000	 77.069803 
789.000000	 77.137649 
788.000000	 77.169875 
787.000000	 77.148067 
786.000000	 77.068586 
785.000000	 76.939734 
784.000000	 76.775637 
783.000000	 76.593381 
782.000000	 76.410940 
781.000000	 76.245899 
780.000000	 76.115833 
779.000000	 76.035974 
778.000000	 76.014331 
777.000000	 76.052662 
776.000000	 76.152220 
775.000000	 76.311145 
774.000000	 76.514581 
773.000000	 76.736512 
772.000000	 76.956800 
771.000000	 77.170552 
770.000000	 77.377071 
769.000000	 77.567411 
768.000000	 77.730054 
767.000000	 77.864128 
766.000000	 77.979352 
765.000000	 78.085452 
764.000000	 78.188667 
763.000000	 78.295874 
762.000000	 78.412282 
761.000000	 78.533294 
760.000000	 78.646327 
759.000000	 78.744650 
758.000000	 78.835248 
757.000000	 78.930538 
756.000000	 79.036078 
755.000000	 79.148107 
754.000000	 79.258515 
753.000000	 79.359521 
752.000000	 79.448052 
751.000000	 79.529295 
750.000000	 79.612856 
749.000000	 79.702612 
748.000000	 79.794027 
747.000000	 79.884424 
746.000000	 79.980669 
745.000000	 80.090587 
744.000000	 80.210819 
743.000000	 80.331966 
742.000000	 80.454157 
741.000000	 80.586962 
740.000000	 80.731309 
739.000000	 80.870441 
738.000000	 80.984752 
737.000000	 81.071178 
736.000000	 81.143694 
735.000000	 81.219096 
734.000000	 81.305724 
733.000000	 81.400483 
732.000000	 81.490108 
731.000000	 81.557907 
730.000000	 81.595893 
729.000000	 81.610915 
728.000000	 81.620261 
727.000000	 81.640377 
726.000000	 81.674835 
725.000000	 81.713517 
724.000000	 81.744915 
723.000000	 81.769254 
722.000000	 81.798330 
721.000000	 81.841301 
720.000000	 81.892517 
719.000000	 81.935270 
718.000000	 81.956954 
717.000000	 81.959419 
716.000000	 81.955662 
715.000000	 81.959309 
714.000000	 81.974784 
713.000000	 81.992248 
712.000000	 81.993218 
711.000000	 81.964671 
710.000000	 81.909709 
709.000000	 81.844871 
708.000000	 81.787106 
707.000000	 81.745838 
706.000000	 81.717687 
705.000000	 81.684584 
704.000000	 81.622062 
703.000000	 81.511611 
702.000000	 81.349222 
701.000000	 81.141616 
700.000000	 80.894602 
699.000000	 80.614148 
698.000000	 80.316232 
697.000000	 80.033219 
696.000000	 79.809930 
695.000000	 79.685530 
694.000000	 79.678041 
693.000000	 79.775873 
692.000000	 79.938580 
691.000000	 80.119833 
690.000000	 80.293577 
689.000000	 80.456888 
688.000000	 80.609115 
687.000000	 80.738613 
686.000000	 80.842270 
685.000000	 80.939778 
684.000000	 81.050894 
683.000000	 81.171190 
682.000000	 81.279202 
681.000000	 81.360983 
680.000000	 81.420977 
679.000000	 81.479480 
678.000000	 81.561199 
677.000000	 81.667341 
676.000000	 81.771115 
675.000000	 81.849996 
674.000000	 81.910532 
673.000000	 81.973283 
672.000000	 82.052787 
671.000000	 82.161014 
670.000000	 82.319144 
669.000000	 82.535234 
668.000000	 82.707091 
667.000000	 82.705534 
666.000000	 82.603611 
665.000000	 82.516863 
664.000000	 82.478921 
663.000000	 82.496059 
662.000000	 82.553762 
661.000000	 82.625862 
660.000000	 82.692274 
659.000000	 82.751766 
658.000000	 82.802309 
657.000000	 82.829121 
656.000000	 82.831609 
655.000000	 82.841308 
654.000000	 82.880989 
653.000000	 82.931805 
652.000000	 82.966036 
651.000000	 82.984758 
650.000000	 83.005792 

