PE IR                   SPECTRUM    ASCII       PEDS        1.60        
  -1
~SP.SP
22/12/06
11:51:49.00
23/01/09
14:36:18.00
Administrator

650.000000
4









FRONTIER FT-IR,CPU32 MAIN 00.09.9951 07-SEPTEMBER-2011 11:49:41
MIR TGS
MIR
OPTKBR
90694
0.200000

4.000000
STRONG
RATIO
SPECTRUM
MAGNITUDE
MIRACLE ATR
DOUBLE

COMBINED


0


#HDR
-1
-1
#GR
CM-1
%T
0.00002384185791015625
0.0
4000.000000
-1.000000
3351
8
98.744996
63.480246
#DATA
4000.000000	98.723874 
3999.000000	98.721265 
3998.000000	98.718122 
3997.000000	98.715783 
3996.000000	98.715628 
3995.000000	98.718062 
3994.000000	98.721846 
3993.000000	98.724772 
3992.000000	98.725530 
3991.000000	98.724510 
3990.000000	98.723178 
3989.000000	98.722503 
3988.000000	98.722113 
3987.000000	98.721112 
3986.000000	98.719207 
3985.000000	98.716744 
3984.000000	98.714000 
3983.000000	98.710965 
3982.000000	98.707848 
3981.000000	98.705471 
3980.000000	98.704945 
3979.000000	98.706913 
3978.000000	98.710972 
3977.000000	98.715573 
3976.000000	98.718569 
3975.000000	98.718317 
3974.000000	98.714577 
3973.000000	98.708689 
3972.000000	98.702799 
3971.000000	98.698657 
3970.000000	98.697063 
3969.000000	98.698060 
3968.000000	98.701300 
3967.000000	98.706206 
3966.000000	98.711885 
3965.000000	98.717090 
3964.000000	98.720550 
3963.000000	98.721583 
3962.000000	98.720488 
3961.000000	98.718206 
3960.000000	98.715471 
3959.000000	98.712479 
3958.000000	98.709372 
3957.000000	98.706663 
3956.000000	98.705019 
3955.000000	98.704828 
3954.000000	98.706172 
3953.000000	98.709059 
3952.000000	98.713448 
3951.000000	98.718905 
3950.000000	98.724288 
3949.000000	98.727968 
3948.000000	98.728807 
3947.000000	98.726901 
3946.000000	98.723349 
3945.000000	98.719529 
3944.000000	98.716358 
3943.000000	98.714061 
3942.000000	98.712426 
3941.000000	98.711135 
3940.000000	98.709992 
3939.000000	98.709117 
3938.000000	98.708814 
3937.000000	98.709272 
3936.000000	98.710429 
3935.000000	98.712200 
3934.000000	98.714644 
3933.000000	98.717546 
3932.000000	98.719994 
3931.000000	98.720842 
3930.000000	98.719716 
3929.000000	98.717184 
3928.000000	98.713983 
3927.000000	98.710630 
3926.000000	98.707837 
3925.000000	98.706855 
3924.000000	98.708562 
3923.000000	98.712248 
3922.000000	98.716050 
3921.000000	98.718784 
3920.000000	98.720659 
3919.000000	98.722265 
3918.000000	98.723378 
3917.000000	98.723095 
3916.000000	98.720867 
3915.000000	98.717070 
3914.000000	98.712820 
3913.000000	98.709515 
3912.000000	98.708070 
3911.000000	98.708270 
3910.000000	98.708937 
3909.000000	98.709086 
3908.000000	98.708904 
3907.000000	98.709521 
3906.000000	98.711755 
3905.000000	98.714822 
3904.000000	98.716496 
3903.000000	98.714897 
3902.000000	98.710022 
3901.000000	98.703829 
3900.000000	98.698872 
3899.000000	98.696416 
3898.000000	98.695901 
3897.000000	98.695947 
3896.000000	98.695806 
3895.000000	98.695759 
3894.000000	98.696240 
3893.000000	98.697182 
3892.000000	98.698204 
3891.000000	98.699217 
3890.000000	98.699912 
3889.000000	98.699001 
3888.000000	98.695236 
3887.000000	98.689110 
3886.000000	98.683227 
3885.000000	98.680217 
3884.000000	98.680052 
3883.000000	98.680888 
3882.000000	98.682389 
3881.000000	98.685965 
3880.000000	98.691974 
3879.000000	98.698283 
3878.000000	98.701842 
3877.000000	98.701420 
3876.000000	98.698268 
3875.000000	98.694518 
3874.000000	98.691196 
3873.000000	98.687477 
3872.000000	98.682219 
3871.000000	98.676713 
3870.000000	98.674663 
3869.000000	98.678098 
3868.000000	98.684383 
3867.000000	98.689379 
3866.000000	98.692208 
3865.000000	98.694667 
3864.000000	98.697410 
3863.000000	98.698732 
3862.000000	98.697157 
3861.000000	98.693509 
3860.000000	98.689615 
3859.000000	98.686679 
3858.000000	98.685171 
3857.000000	98.685158 
3856.000000	98.686246 
3855.000000	98.687922 
3854.000000	98.691417 
3853.000000	98.699290 
3852.000000	98.709840 
3851.000000	98.717287 
3850.000000	98.719711 
3849.000000	98.719918 
3848.000000	98.720260 
3847.000000	98.719951 
3846.000000	98.716466 
3845.000000	98.708626 
3844.000000	98.698189 
3843.000000	98.689056 
3842.000000	98.684707 
3841.000000	98.686419 
3840.000000	98.693815 
3839.000000	98.705998 
3838.000000	98.720949 
3837.000000	98.734560 
3836.000000	98.742008 
3835.000000	98.740584 
3834.000000	98.731209 
3833.000000	98.717787 
3832.000000	98.705034 
3831.000000	98.695782 
3830.000000	98.690012 
3829.000000	98.686791 
3828.000000	98.686470 
3827.000000	98.690393 
3826.000000	98.698602 
3825.000000	98.708543 
3824.000000	98.716312 
3823.000000	98.719221 
3822.000000	98.716926 
3821.000000	98.711073 
3820.000000	98.703275 
3819.000000	98.693283 
3818.000000	98.681899 
3817.000000	98.673501 
3816.000000	98.672953 
3815.000000	98.680653 
3814.000000	98.691754 
3813.000000	98.701433 
3812.000000	98.709046 
3811.000000	98.715649 
3810.000000	98.720337 
3809.000000	98.720347 
3808.000000	98.713993 
3807.000000	98.703076 
3806.000000	98.691313 
3805.000000	98.680424 
3804.000000	98.670814 
3803.000000	98.664688 
3802.000000	98.665049 
3801.000000	98.672175 
3800.000000	98.681891 
3799.000000	98.689064 
3798.000000	98.693021 
3797.000000	98.696360 
3796.000000	98.700020 
3795.000000	98.701582 
3794.000000	98.697984 
3793.000000	98.688832 
3792.000000	98.677131 
3791.000000	98.667146 
3790.000000	98.661841 
3789.000000	98.662041 
3788.000000	98.666781 
3787.000000	98.673949 
3786.000000	98.681305 
3785.000000	98.687465 
3784.000000	98.692054 
3783.000000	98.695000 
3782.000000	98.695949 
3781.000000	98.694732 
3780.000000	98.691822 
3779.000000	98.688109 
3778.000000	98.684095 
3777.000000	98.679725 
3776.000000	98.675250 
3775.000000	98.671710 
3774.000000	98.670247 
3773.000000	98.671410 
3772.000000	98.675556 
3771.000000	98.683365 
3770.000000	98.694611 
3769.000000	98.706202 
3768.000000	98.713152 
3767.000000	98.712488 
3766.000000	98.705542 
3765.000000	98.696419 
3764.000000	98.687993 
3763.000000	98.680064 
3762.000000	98.671961 
3761.000000	98.665665 
3760.000000	98.664777 
3759.000000	98.670747 
3758.000000	98.681231 
3757.000000	98.692688 
3756.000000	98.702703 
3755.000000	98.709611 
3754.000000	98.712071 
3753.000000	98.709760 
3752.000000	98.704189 
3751.000000	98.697848 
3750.000000	98.692248 
3749.000000	98.687168 
3748.000000	98.681854 
3747.000000	98.677158 
3746.000000	98.676326 
3745.000000	98.682308 
3744.000000	98.693776 
3743.000000	98.702767 
3742.000000	98.700827 
3741.000000	98.689354 
3740.000000	98.677250 
3739.000000	98.669515 
3738.000000	98.662711 
3737.000000	98.651364 
3736.000000	98.636508 
3735.000000	98.624835 
3734.000000	98.620664 
3733.000000	98.623151 
3732.000000	98.629796 
3731.000000	98.637405 
3730.000000	98.641381 
3729.000000	98.638229 
3728.000000	98.628729 
3727.000000	98.617359 
3726.000000	98.607699 
3725.000000	98.598285 
3724.000000	98.585295 
3723.000000	98.568830 
3722.000000	98.553521 
3721.000000	98.543359 
3720.000000	98.538086 
3719.000000	98.535084 
3718.000000	98.532682 
3717.000000	98.530951 
3716.000000	98.529534 
3715.000000	98.526061 
3714.000000	98.517670 
3713.000000	98.502916 
3712.000000	98.482265 
3711.000000	98.457254 
3710.000000	98.429585 
3709.000000	98.401866 
3708.000000	98.377953 
3707.000000	98.361075 
3706.000000	98.351267 
3705.000000	98.344957 
3704.000000	98.337596 
3703.000000	98.327165 
3702.000000	98.315549 
3701.000000	98.305891 
3700.000000	98.298195 
3699.000000	98.288891 
3698.000000	98.275018 
3697.000000	98.257481 
3696.000000	98.239725 
3695.000000	98.224278 
3694.000000	98.212445 
3693.000000	98.206142 
3692.000000	98.206398 
3691.000000	98.209905 
3690.000000	98.210455 
3689.000000	98.206490 
3688.000000	98.202796 
3687.000000	98.200830 
3686.000000	98.194858 
3685.000000	98.180026 
3684.000000	98.157228 
3683.000000	98.129923 
3682.000000	98.100107 
3681.000000	98.068648 
3680.000000	98.038505 
3679.000000	98.013692 
3678.000000	97.995010 
3677.000000	97.979830 
3676.000000	97.968024 
3675.000000	97.963832 
3674.000000	97.965041 
3673.000000	97.959477 
3672.000000	97.937762 
3671.000000	97.899069 
3670.000000	97.849737 
3669.000000	97.799990 
3668.000000	97.754880 
3667.000000	97.713041 
3666.000000	97.673020 
3665.000000	97.635191 
3664.000000	97.601471 
3663.000000	97.574941 
3662.000000	97.557703 
3661.000000	97.548286 
3660.000000	97.541285 
3659.000000	97.529551 
3658.000000	97.507998 
3657.000000	97.476679 
3656.000000	97.441084 
3655.000000	97.405861 
3654.000000	97.370105 
3653.000000	97.333010 
3652.000000	97.299484 
3651.000000	97.275981 
3650.000000	97.262430 
3649.000000	97.250860 
3648.000000	97.234371 
3647.000000	97.213618 
3646.000000	97.191613 
3645.000000	97.168335 
3644.000000	97.142259 
3643.000000	97.113491 
3642.000000	97.083107 
3641.000000	97.051005 
3640.000000	97.016660 
3639.000000	96.982562 
3638.000000	96.954370 
3637.000000	96.935039 
3636.000000	96.921190 
3635.000000	96.907216 
3634.000000	96.892123 
3633.000000	96.879091 
3632.000000	96.868935 
3631.000000	96.856951 
3630.000000	96.835451 
3629.000000	96.802227 
3628.000000	96.765414 
3627.000000	96.733345 
3626.000000	96.709718 
3625.000000	96.699066 
3624.000000	96.703430 
3623.000000	96.717772 
3622.000000	96.734403 
3621.000000	96.750465 
3620.000000	96.769669 
3619.000000	96.796557 
3618.000000	96.830770 
3617.000000	96.867431 
3616.000000	96.901224 
3615.000000	96.929000 
3614.000000	96.951064 
3613.000000	96.971648 
3612.000000	96.995950 
3611.000000	97.025404 
3610.000000	97.056972 
3609.000000	97.086860 
3608.000000	97.113579 
3607.000000	97.137687 
3606.000000	97.159951 
3605.000000	97.180872 
3604.000000	97.200736 
3603.000000	97.219013 
3602.000000	97.235052 
3601.000000	97.249431 
3600.000000	97.263460 
3599.000000	97.276204 
3598.000000	97.284569 
3597.000000	97.287370 
3596.000000	97.287934 
3595.000000	97.291483 
3594.000000	97.300905 
3593.000000	97.315559 
3592.000000	97.334279 
3591.000000	97.357256 
3590.000000	97.383032 
3589.000000	97.404967 
3588.000000	97.413622 
3587.000000	97.405333 
3586.000000	97.386118 
3585.000000	97.365836 
3584.000000	97.351323 
3583.000000	97.344929 
3582.000000	97.345566 
3581.000000	97.350401 
3580.000000	97.356709 
3579.000000	97.362987 
3578.000000	97.368617 
3577.000000	97.372393 
3576.000000	97.371712 
3575.000000	97.364130 
3574.000000	97.350374 
3573.000000	97.335288 
3572.000000	97.324856 
3571.000000	97.322013 
3570.000000	97.325195 
3569.000000	97.330273 
3568.000000	97.333831 
3567.000000	97.334833 
3566.000000	97.333819 
3565.000000	97.331518 
3564.000000	97.328542 
3563.000000	97.324917 
3562.000000	97.319370 
3561.000000	97.310297 
3560.000000	97.298332 
3559.000000	97.287250 
3558.000000	97.281222 
3557.000000	97.281207 
3556.000000	97.284409 
3555.000000	97.286807 
3554.000000	97.285941 
3553.000000	97.281771 
3552.000000	97.275820 
3551.000000	97.270106 
3550.000000	97.266397 
3549.000000	97.265302 
3548.000000	97.265453 
3547.000000	97.264350 
3546.000000	97.261048 
3545.000000	97.257416 
3544.000000	97.255623 
3543.000000	97.255446 
3542.000000	97.254853 
3541.000000	97.252384 
3540.000000	97.248453 
3539.000000	97.244569 
3538.000000	97.241673 
3537.000000	97.239534 
3536.000000	97.237396 
3535.000000	97.234783 
3534.000000	97.231726 
3533.000000	97.228436 
3532.000000	97.225095 
3531.000000	97.221818 
3530.000000	97.218693 
3529.000000	97.215784 
3528.000000	97.213068 
3527.000000	97.210417 
3526.000000	97.207693 
3525.000000	97.204837 
3524.000000	97.201876 
3523.000000	97.198861 
3522.000000	97.195833 
3521.000000	97.192814 
3520.000000	97.189819 
3519.000000	97.186842 
3518.000000	97.183851 
3517.000000	97.180825 
3516.000000	97.177766 
3515.000000	97.174685 
3514.000000	97.171576 
3513.000000	97.168415 
3512.000000	97.165197 
3511.000000	97.161950 
3510.000000	97.158713 
3509.000000	97.155505 
3508.000000	97.152310 
3507.000000	97.149083 
3506.000000	97.145771 
3505.000000	97.142356 
3504.000000	97.138862 
3503.000000	97.135334 
3502.000000	97.131793 
3501.000000	97.128237 
3500.000000	97.124670 
3499.000000	97.121119 
3498.000000	97.117608 
3497.000000	97.114132 
3496.000000	97.110660 
3495.000000	97.107161 
3494.000000	97.103625 
3493.000000	97.100061 
3492.000000	97.096486 
3491.000000	97.092922 
3490.000000	97.089381 
3489.000000	97.085857 
3488.000000	97.082330 
3487.000000	97.078778 
3486.000000	97.075181 
3485.000000	97.071528 
3484.000000	97.067813 
3483.000000	97.064040 
3482.000000	97.060217 
3481.000000	97.056360 
3480.000000	97.052478 
3479.000000	97.048572 
3478.000000	97.044632 
3477.000000	97.040642 
3476.000000	97.036590 
3475.000000	97.032475 
3474.000000	97.028303 
3473.000000	97.024100 
3472.000000	97.019906 
3471.000000	97.015735 
3470.000000	97.011538 
3469.000000	97.007263 
3468.000000	97.002955 
3467.000000	96.998758 
3466.000000	96.994764 
3465.000000	96.990861 
3464.000000	96.986782 
3463.000000	96.982335 
3462.000000	96.977574 
3461.000000	96.972778 
3460.000000	96.968252 
3459.000000	96.964136 
3458.000000	96.960323 
3457.000000	96.956514 
3456.000000	96.952405 
3455.000000	96.947882 
3454.000000	96.943141 
3453.000000	96.938645 
3452.000000	96.934764 
3451.000000	96.931255 
3450.000000	96.927235 
3449.000000	96.922045 
3448.000000	96.916104 
3447.000000	96.910721 
3446.000000	96.906674 
3445.000000	96.903203 
3444.000000	96.898699 
3443.000000	96.892224 
3442.000000	96.884393 
3441.000000	96.877014 
3440.000000	96.871715 
3439.000000	96.868577 
3438.000000	96.865748 
3437.000000	96.860810 
3436.000000	96.853141 
3435.000000	96.844780 
3434.000000	96.838623 
3433.000000	96.835817 
3432.000000	96.835169 
3431.000000	96.834647 
3430.000000	96.833140 
3429.000000	96.830789 
3428.000000	96.828149 
3427.000000	96.825474 
3426.000000	96.822698 
3425.000000	96.819846 
3424.000000	96.817218 
3423.000000	96.815010 
3422.000000	96.812857 
3421.000000	96.810030 
3420.000000	96.806256 
3419.000000	96.802186 
3418.000000	96.798796 
3417.000000	96.796363 
3416.000000	96.794213 
3415.000000	96.791557 
3414.000000	96.788516 
3413.000000	96.786218 
3412.000000	96.785781 
3411.000000	96.787122 
3410.000000	96.788697 
3409.000000	96.788602 
3408.000000	96.786085 
3407.000000	96.782111 
3406.000000	96.778559 
3405.000000	96.776711 
3404.000000	96.776386 
3403.000000	96.776390 
3402.000000	96.775822 
3401.000000	96.775077 
3400.000000	96.775461 
3399.000000	96.777781 
3398.000000	96.781344 
3397.000000	96.784255 
3396.000000	96.784890 
3395.000000	96.783127 
3394.000000	96.780340 
3393.000000	96.778413 
3392.000000	96.778350 
3391.000000	96.779787 
3390.000000	96.781543 
3389.000000	96.782571 
3388.000000	96.782607 
3387.000000	96.782100 
3386.000000	96.781699 
3385.000000	96.781685 
3384.000000	96.781800 
3383.000000	96.781636 
3382.000000	96.781266 
3381.000000	96.781391 
3380.000000	96.782649 
3379.000000	96.784773 
3378.000000	96.786700 
3377.000000	96.787698 
3376.000000	96.788172 
3375.000000	96.789159 
3374.000000	96.791247 
3373.000000	96.794269 
3372.000000	96.797759 
3371.000000	96.801300 
3370.000000	96.804356 
3369.000000	96.806183 
3368.000000	96.806319 
3367.000000	96.805096 
3366.000000	96.803589 
3365.000000	96.802988 
3364.000000	96.803866 
3363.000000	96.806087 
3362.000000	96.809118 
3361.000000	96.812390 
3360.000000	96.815555 
3359.000000	96.818487 
3358.000000	96.821153 
3357.000000	96.823522 
3356.000000	96.825549 
3355.000000	96.827169 
3354.000000	96.828310 
3353.000000	96.829036 
3352.000000	96.829727 
3351.000000	96.830943 
3350.000000	96.832979 
3349.000000	96.835575 
3348.000000	96.838081 
3347.000000	96.840043 
3346.000000	96.841543 
3345.000000	96.843020 
3344.000000	96.844825 
3343.000000	96.846951 
3342.000000	96.849137 
3341.000000	96.851150 
3340.000000	96.852988 
3339.000000	96.854876 
3338.000000	96.857095 
3337.000000	96.859774 
3336.000000	96.862785 
3335.000000	96.865766 
3334.000000	96.868333 
3333.000000	96.870360 
3332.000000	96.872045 
3331.000000	96.873810 
3330.000000	96.875983 
3329.000000	96.878591 
3328.000000	96.881410 
3327.000000	96.884123 
3326.000000	96.886521 
3325.000000	96.888599 
3324.000000	96.890551 
3323.000000	96.892635 
3322.000000	96.894957 
3321.000000	96.897378 
3320.000000	96.899649 
3319.000000	96.901640 
3318.000000	96.903429 
3317.000000	96.905173 
3316.000000	96.906944 
3315.000000	96.908705 
3314.000000	96.910405 
3313.000000	96.912045 
3312.000000	96.913682 
3311.000000	96.915434 
3310.000000	96.917475 
3309.000000	96.919916 
3308.000000	96.922665 
3307.000000	96.925393 
3306.000000	96.927792 
3305.000000	96.929848 
3304.000000	96.931840 
3303.000000	96.934020 
3302.000000	96.936312 
3301.000000	96.938421 
3300.000000	96.940203 
3299.000000	96.941835 
3298.000000	96.943645 
3297.000000	96.945822 
3296.000000	96.948372 
3295.000000	96.951217 
3294.000000	96.954174 
3293.000000	96.956847 
3292.000000	96.958779 
3291.000000	96.959830 
3290.000000	96.960495 
3289.000000	96.961602 
3288.000000	96.963575 
3287.000000	96.966189 
3286.000000	96.968806 
3285.000000	96.970945 
3284.000000	96.972618 
3283.000000	96.974237 
3282.000000	96.976299 
3281.000000	96.979049 
3280.000000	96.982270 
3279.000000	96.985362 
3278.000000	96.987772 
3277.000000	96.989413 
3276.000000	96.990701 
3275.000000	96.992192 
3274.000000	96.994182 
3273.000000	96.996676 
3272.000000	96.999612 
3271.000000	97.002958 
3270.000000	97.006602 
3269.000000	97.010373 
3268.000000	97.014244 
3267.000000	97.018296 
3266.000000	97.022344 
3265.000000	97.025780 
3264.000000	97.027970 
3263.000000	97.028836 
3262.000000	97.029036 
3261.000000	97.029542 
3260.000000	97.031069 
3259.000000	97.033769 
3258.000000	97.037301 
3257.000000	97.041261 
3256.000000	97.045644 
3255.000000	97.050759 
3254.000000	97.056525 
3253.000000	97.062020 
3252.000000	97.066050 
3251.000000	97.068128 
3250.000000	97.068748 
3249.000000	97.068992 
3248.000000	97.069959 
3247.000000	97.072365 
3246.000000	97.076227 
3245.000000	97.080686 
3244.000000	97.084536 
3243.000000	97.087293 
3242.000000	97.089562 
3241.000000	97.092160 
3240.000000	97.095015 
3239.000000	97.097255 
3238.000000	97.098312 
3237.000000	97.098670 
3236.000000	97.099491 
3235.000000	97.101685 
3234.000000	97.105340 
3233.000000	97.109884 
3232.000000	97.114563 
3231.000000	97.118846 
3230.000000	97.122622 
3229.000000	97.126204 
3228.000000	97.130113 
3227.000000	97.134681 
3226.000000	97.139681 
3225.000000	97.144304 
3224.000000	97.147750 
3223.000000	97.149959 
3222.000000	97.151739 
3221.000000	97.154169 
3220.000000	97.157658 
3219.000000	97.161725 
3218.000000	97.165576 
3217.000000	97.168834 
3216.000000	97.171792 
3215.000000	97.175046 
3214.000000	97.178938 
3213.000000	97.183311 
3212.000000	97.187676 
3211.000000	97.191627 
3210.000000	97.195095 
3209.000000	97.198289 
3208.000000	97.201479 
3207.000000	97.204801 
3206.000000	97.208209 
3205.000000	97.211544 
3204.000000	97.214684 
3203.000000	97.217700 
3202.000000	97.220888 
3201.000000	97.224608 
3200.000000	97.229008 
3199.000000	97.233908 
3198.000000	97.238891 
3197.000000	97.243513 
3196.000000	97.247533 
3195.000000	97.251011 
3194.000000	97.254277 
3193.000000	97.257729 
3192.000000	97.261558 
3191.000000	97.265667 
3190.000000	97.269796 
3189.000000	97.273763 
3188.000000	97.277618 
3187.000000	97.281600 
3186.000000	97.285926 
3185.000000	97.290605 
3184.000000	97.295359 
3183.000000	97.299704 
3182.000000	97.303171 
3181.000000	97.305586 
3180.000000	97.307372 
3179.000000	97.309486 
3178.000000	97.312743 
3177.000000	97.317208 
3176.000000	97.322192 
3175.000000	97.327007 
3174.000000	97.331676 
3173.000000	97.336604 
3172.000000	97.341795 
3171.000000	97.346649 
3170.000000	97.350602 
3169.000000	97.353735 
3168.000000	97.356641 
3167.000000	97.359889 
3166.000000	97.363718 
3165.000000	97.368146 
3164.000000	97.373063 
3163.000000	97.378160 
3162.000000	97.382980 
3161.000000	97.387229 
3160.000000	97.391038 
3159.000000	97.394848 
3158.000000	97.399027 
3157.000000	97.403615 
3156.000000	97.408371 
3155.000000	97.413010 
3154.000000	97.417378 
3153.000000	97.421466 
3152.000000	97.425342 
3151.000000	97.429122 
3150.000000	97.432992 
3149.000000	97.437162 
3148.000000	97.441769 
3147.000000	97.446922 
3146.000000	97.452822 
3145.000000	97.459646 
3144.000000	97.467105 
3143.000000	97.474147 
3142.000000	97.479591 
3141.000000	97.483107 
3140.000000	97.485412 
3139.000000	97.487610 
3138.000000	97.490340 
3137.000000	97.493671 
3136.000000	97.497522 
3135.000000	97.501747 
3134.000000	97.506061 
3133.000000	97.510374 
3132.000000	97.515182 
3131.000000	97.521163 
3130.000000	97.528206 
3129.000000	97.535063 
3128.000000	97.540318 
3127.000000	97.543625 
3126.000000	97.545853 
3125.000000	97.548221 
3124.000000	97.551313 
3123.000000	97.554913 
3122.000000	97.558504 
3121.000000	97.561889 
3120.000000	97.565502 
3119.000000	97.570125 
3118.000000	97.576171 
3117.000000	97.583190 
3116.000000	97.590045 
3115.000000	97.595645 
3114.000000	97.599522 
3113.000000	97.601910 
3112.000000	97.603625 
3111.000000	97.605787 
3110.000000	97.609277 
3109.000000	97.614179 
3108.000000	97.619681 
3107.000000	97.624740 
3106.000000	97.629067 
3105.000000	97.633493 
3104.000000	97.639245 
3103.000000	97.646656 
3102.000000	97.654406 
3101.000000	97.660322 
3100.000000	97.663189 
3099.000000	97.663591 
3098.000000	97.663176 
3097.000000	97.663069 
3096.000000	97.663338 
3095.000000	97.664006 
3094.000000	97.665905 
3093.000000	97.670105 
3092.000000	97.676671 
3091.000000	97.684311 
3090.000000	97.691393 
3089.000000	97.697126 
3088.000000	97.701657 
3087.000000	97.705352 
3086.000000	97.708228 
3085.000000	97.710149 
3084.000000	97.711465 
3083.000000	97.713111 
3082.000000	97.715890 
3081.000000	97.719807 
3080.000000	97.724375 
3079.000000	97.729475 
3078.000000	97.735447 
3077.000000	97.742212 
3076.000000	97.748807 
3075.000000	97.754183 
3074.000000	97.758165 
3073.000000	97.761265 
3072.000000	97.763831 
3071.000000	97.765900 
3070.000000	97.767760 
3069.000000	97.769991 
3068.000000	97.772648 
3067.000000	97.774870 
3066.000000	97.775797 
3065.000000	97.775778 
3064.000000	97.776387 
3063.000000	97.779164 
3062.000000	97.784441 
3061.000000	97.791204 
3060.000000	97.797924 
3059.000000	97.803628 
3058.000000	97.808236 
3057.000000	97.812019 
3056.000000	97.814819 
3055.000000	97.815875 
3054.000000	97.814446 
3053.000000	97.810603 
3052.000000	97.805681 
3051.000000	97.802158 
3050.000000	97.802663 
3049.000000	97.808411 
3048.000000	97.818081 
3047.000000	97.828326 
3046.000000	97.836023 
3045.000000	97.840104 
3044.000000	97.841276 
3043.000000	97.840542 
3042.000000	97.838347 
3041.000000	97.834957 
3040.000000	97.831140 
3039.000000	97.828251 
3038.000000	97.827711 
3037.000000	97.830305 
3036.000000	97.835695 
3035.000000	97.842543 
3034.000000	97.849294 
3033.000000	97.854842 
3032.000000	97.858361 
3031.000000	97.858776 
3030.000000	97.854919 
3029.000000	97.846599 
3028.000000	97.835539 
3027.000000	97.825018 
3026.000000	97.818145 
3025.000000	97.816206 
3024.000000	97.818425 
3023.000000	97.822992 
3022.000000	97.828257 
3021.000000	97.833104 
3020.000000	97.836582 
3019.000000	97.837678 
3018.000000	97.835682 
3017.000000	97.830775 
3016.000000	97.824244 
3015.000000	97.817965 
3014.000000	97.813219 
3013.000000	97.809607 
3012.000000	97.805429 
3011.000000	97.799661 
3010.000000	97.793428 
3009.000000	97.788785 
3008.000000	97.786010 
3007.000000	97.782899 
3006.000000	97.777202 
3005.000000	97.769097 
3004.000000	97.760737 
3003.000000	97.753933 
3002.000000	97.749009 
3001.000000	97.745412 
3000.000000	97.742459 
2999.000000	97.739494 
2998.000000	97.736264 
2997.000000	97.733367 
2996.000000	97.731463 
2995.000000	97.729443 
2994.000000	97.723981 
2993.000000	97.712075 
2992.000000	97.694533 
2991.000000	97.676530 
2990.000000	97.664056 
2989.000000	97.659544 
2988.000000	97.660875 
2987.000000	97.664125 
2986.000000	97.666667 
2985.000000	97.667415 
2984.000000	97.665288 
2983.000000	97.659307 
2982.000000	97.650644 
2981.000000	97.643236 
2980.000000	97.641027 
2979.000000	97.644625 
2978.000000	97.650992 
2977.000000	97.655918 
2976.000000	97.656471 
2975.000000	97.652100 
2974.000000	97.645054 
2973.000000	97.639845 
2972.000000	97.640635 
2971.000000	97.648062 
2970.000000	97.659158 
2969.000000	97.671187 
2968.000000	97.684967 
2967.000000	97.703323 
2966.000000	97.726380 
2965.000000	97.749712 
2964.000000	97.767634 
2963.000000	97.777447 
2962.000000	97.779899 
2961.000000	97.776903 
2960.000000	97.770685 
2959.000000	97.764941 
2958.000000	97.764494 
2957.000000	97.771991 
2956.000000	97.785461 
2955.000000	97.800500 
2954.000000	97.814731 
2953.000000	97.828716 
2952.000000	97.842348 
2951.000000	97.852270 
2950.000000	97.854465 
2949.000000	97.848881 
2948.000000	97.840211 
2947.000000	97.834075 
2946.000000	97.832871 
2945.000000	97.835398 
2944.000000	97.839357 
2943.000000	97.843468 
2942.000000	97.847511 
2941.000000	97.851127 
2940.000000	97.853134 
2939.000000	97.852226 
2938.000000	97.848312 
2937.000000	97.842938 
2936.000000	97.838236 
2935.000000	97.835494 
2934.000000	97.834788 
2933.000000	97.835560 
2932.000000	97.837209 
2931.000000	97.839498 
2930.000000	97.842873 
2929.000000	97.848190 
2928.000000	97.855542 
2927.000000	97.863394 
2926.000000	97.869477 
2925.000000	97.872922 
2924.000000	97.875027 
2923.000000	97.877633 
2922.000000	97.881163 
2921.000000	97.884745 
2920.000000	97.888005 
2919.000000	97.892010 
2918.000000	97.898059 
2917.000000	97.905760 
2916.000000	97.912739 
2915.000000	97.916400 
2914.000000	97.915983 
2913.000000	97.912883 
2912.000000	97.909363 
2911.000000	97.907186 
2910.000000	97.907029 
2909.000000	97.908319 
2908.000000	97.909455 
2907.000000	97.908998 
2906.000000	97.907324 
2905.000000	97.906668 
2904.000000	97.908829 
2903.000000	97.912995 
2902.000000	97.916615 
2901.000000	97.918543 
2900.000000	97.920322 
2899.000000	97.923998 
2898.000000	97.929552 
2897.000000	97.935280 
2896.000000	97.940267 
2895.000000	97.945483 
2894.000000	97.952239 
2893.000000	97.960381 
2892.000000	97.968542 
2891.000000	97.975679 
2890.000000	97.981556 
2889.000000	97.985729 
2888.000000	97.987032 
2887.000000	97.984895 
2886.000000	97.981115 
2885.000000	97.979474 
2884.000000	97.982914 
2883.000000	97.991496 
2882.000000	98.002781 
2881.000000	98.013864 
2880.000000	98.023148 
2879.000000	98.030532 
2878.000000	98.036670 
2877.000000	98.042193 
2876.000000	98.047169 
2875.000000	98.051182 
2874.000000	98.054165 
2873.000000	98.057092 
2872.000000	98.061486 
2871.000000	98.068143 
2870.000000	98.076549 
2869.000000	98.085421 
2868.000000	98.093601 
2867.000000	98.100515 
2866.000000	98.106300 
2865.000000	98.111604 
2864.000000	98.116998 
2863.000000	98.122573 
2862.000000	98.128314 
2861.000000	98.134643 
2860.000000	98.141995 
2859.000000	98.149942 
2858.000000	98.157429 
2857.000000	98.164105 
2856.000000	98.170740 
2855.000000	98.177934 
2854.000000	98.185047 
2853.000000	98.191060 
2852.000000	98.196174 
2851.000000	98.201818 
2850.000000	98.208995 
2849.000000	98.217074 
2848.000000	98.224370 
2847.000000	98.229677 
2846.000000	98.233228 
2845.000000	98.236531 
2844.000000	98.241333 
2843.000000	98.248266 
2842.000000	98.256237 
2841.000000	98.263211 
2840.000000	98.267873 
2839.000000	98.270569 
2838.000000	98.272763 
2837.000000	98.275762 
2836.000000	98.279793 
2835.000000	98.284140 
2834.000000	98.288047 
2833.000000	98.291534 
2832.000000	98.295346 
2831.000000	98.300080 
2830.000000	98.305383 
2829.000000	98.310093 
2828.000000	98.313211 
2827.000000	98.314739 
2826.000000	98.315741 
2825.000000	98.317756 
2824.000000	98.321842 
2823.000000	98.327859 
2822.000000	98.334453 
2821.000000	98.339892 
2820.000000	98.343290 
2819.000000	98.344924 
2818.000000	98.345649 
2817.000000	98.346237 
2816.000000	98.347215 
2815.000000	98.348936 
2814.000000	98.351437 
2813.000000	98.354329 
2812.000000	98.357104 
2811.000000	98.359628 
2810.000000	98.362189 
2809.000000	98.365061 
2808.000000	98.368190 
2807.000000	98.371287 
2806.000000	98.374065 
2805.000000	98.376333 
2804.000000	98.378054 
2803.000000	98.379508 
2802.000000	98.381286 
2801.000000	98.383884 
2800.000000	98.387231 
2799.000000	98.390646 
2798.000000	98.393374 
2797.000000	98.395151 
2796.000000	98.396246 
2795.000000	98.397111 
2794.000000	98.398021 
2793.000000	98.399041 
2792.000000	98.400239 
2791.000000	98.401876 
2790.000000	98.404331 
2789.000000	98.407794 
2788.000000	98.411927 
2787.000000	98.415822 
2786.000000	98.418578 
2785.000000	98.419948 
2784.000000	98.420458 
2783.000000	98.420872 
2782.000000	98.421504 
2781.000000	98.422238 
2780.000000	98.423048 
2779.000000	98.424244 
2778.000000	98.426182 
2777.000000	98.428867 
2776.000000	98.431903 
2775.000000	98.434781 
2774.000000	98.437138 
2773.000000	98.438818 
2772.000000	98.439843 
2771.000000	98.440396 
2770.000000	98.440765 
2769.000000	98.441205 
2768.000000	98.441902 
2767.000000	98.443141 
2766.000000	98.445372 
2765.000000	98.448855 
2764.000000	98.453133 
2763.000000	98.456995 
2762.000000	98.459359 
2761.000000	98.460082 
2760.000000	98.459853 
2759.000000	98.459422 
2758.000000	98.459038 
2757.000000	98.458799 
2756.000000	98.459138 
2755.000000	98.460607 
2754.000000	98.463245 
2753.000000	98.466461 
2752.000000	98.469605 
2751.000000	98.472469 
2750.000000	98.475083 
2749.000000	98.477234 
2748.000000	98.478500 
2747.000000	98.478812 
2746.000000	98.478686 
2745.000000	98.478730 
2744.000000	98.479132 
2743.000000	98.479842 
2742.000000	98.481023 
2741.000000	98.482967 
2740.000000	98.485583 
2739.000000	98.488242 
2738.000000	98.490366 
2737.000000	98.491911 
2736.000000	98.493059 
2735.000000	98.493776 
2734.000000	98.494047 
2733.000000	98.494348 
2732.000000	98.495395 
2731.000000	98.497359 
2730.000000	98.499687 
2729.000000	98.501758 
2728.000000	98.503370 
2727.000000	98.504462 
2726.000000	98.504880 
2725.000000	98.504701 
2724.000000	98.504552 
2723.000000	98.505236 
2722.000000	98.507145 
2721.000000	98.510182 
2720.000000	98.513946 
2719.000000	98.517673 
2718.000000	98.520317 
2717.000000	98.521133 
2716.000000	98.520204 
2715.000000	98.518310 
2714.000000	98.516293 
2713.000000	98.514710 
2712.000000	98.514026 
2711.000000	98.514742 
2710.000000	98.517247 
2709.000000	98.521601 
2708.000000	98.527334 
2707.000000	98.533245 
2706.000000	98.537601 
2705.000000	98.539086 
2704.000000	98.537753 
2703.000000	98.534931 
2702.000000	98.532035 
2701.000000	98.529613 
2700.000000	98.527662 
2699.000000	98.526489 
2698.000000	98.526906 
2697.000000	98.529644 
2696.000000	98.534680 
2695.000000	98.540971 
2694.000000	98.546806 
2693.000000	98.550742 
2692.000000	98.552482 
2691.000000	98.552803 
2690.000000	98.552469 
2689.000000	98.551280 
2688.000000	98.548569 
2687.000000	98.544676 
2686.000000	98.541599 
2685.000000	98.541791 
2684.000000	98.546221 
2683.000000	98.553563 
2682.000000	98.561104 
2681.000000	98.566602 
2680.000000	98.569250 
2679.000000	98.569166 
2678.000000	98.566489 
2677.000000	98.561345 
2676.000000	98.554667 
2675.000000	98.548504 
2674.000000	98.545008 
2673.000000	98.545275 
2672.000000	98.549128 
2671.000000	98.555735 
2670.000000	98.564136 
2669.000000	98.573060 
2668.000000	98.580726 
2667.000000	98.585460 
2666.000000	98.586659 
2665.000000	98.585060 
2664.000000	98.581981 
2663.000000	98.578483 
2662.000000	98.575354 
2661.000000	98.573311 
2660.000000	98.572666 
2659.000000	98.573013 
2658.000000	98.573804 
2657.000000	98.575229 
2656.000000	98.577969 
2655.000000	98.582018 
2654.000000	98.586253 
2653.000000	98.589490 
2652.000000	98.591598 
2651.000000	98.593190 
2650.000000	98.594526 
2649.000000	98.595194 
2648.000000	98.594686 
2647.000000	98.592724 
2646.000000	98.589126 
2645.000000	98.584042 
2644.000000	98.578630 
2643.000000	98.575039 
2642.000000	98.575172 
2641.000000	98.579327 
2640.000000	98.586124 
2639.000000	98.593677 
2638.000000	98.600741 
2637.000000	98.606835 
2636.000000	98.611398 
2635.000000	98.612981 
2634.000000	98.609688 
2633.000000	98.600884 
2632.000000	98.588665 
2631.000000	98.577351 
2630.000000	98.571076 
2629.000000	98.571866 
2628.000000	98.579686 
2627.000000	98.593274 
2626.000000	98.610176 
2625.000000	98.626363 
2624.000000	98.637133 
2623.000000	98.639223 
2622.000000	98.632085 
2621.000000	98.617605 
2620.000000	98.599331 
2619.000000	98.582002 
2618.000000	98.570568 
2617.000000	98.568279 
2616.000000	98.575254 
2615.000000	98.588955 
2614.000000	98.605951 
2613.000000	98.622993 
2612.000000	98.636752 
2611.000000	98.643787 
2610.000000	98.641809 
2609.000000	98.631171 
2608.000000	98.615141 
2607.000000	98.598675 
2606.000000	98.586421 
2605.000000	98.581201 
2604.000000	98.583649 
2603.000000	98.592822 
2602.000000	98.606931 
2601.000000	98.623256 
2600.000000	98.637812 
2599.000000	98.646419 
2598.000000	98.647106 
2597.000000	98.641429 
2596.000000	98.633004 
2595.000000	98.624606 
2594.000000	98.616980 
2593.000000	98.610161 
2592.000000	98.604959 
2591.000000	98.602808 
2590.000000	98.604635 
2589.000000	98.610232 
2588.000000	98.618446 
2587.000000	98.627597 
2586.000000	98.635896 
2585.000000	98.641891 
2584.000000	98.644632 
2583.000000	98.643580 
2582.000000	98.638703 
2581.000000	98.630818 
2580.000000	98.621571 
2579.000000	98.612778 
2578.000000	98.605825 
2577.000000	98.601788 
2576.000000	98.601717 
2575.000000	98.606351 
2574.000000	98.615452 
2573.000000	98.627508 
2572.000000	98.640053 
2571.000000	98.650400 
2570.000000	98.656536 
2569.000000	98.657712 
2568.000000	98.654099 
2567.000000	98.645982 
2566.000000	98.633800 
2565.000000	98.619274 
2564.000000	98.605988 
2563.000000	98.597943 
2562.000000	98.597336 
2561.000000	98.603988 
2560.000000	98.616411 
2559.000000	98.632504 
2558.000000	98.649181 
2557.000000	98.662435 
2556.000000	98.668876 
2555.000000	98.667382 
2554.000000	98.659088 
2553.000000	98.646063 
2552.000000	98.630482 
2551.000000	98.615045 
2550.000000	98.603348 
2549.000000	98.598893 
2548.000000	98.603283 
2547.000000	98.615265 
2546.000000	98.631376 
2545.000000	98.647530 
2544.000000	98.660362 
2543.000000	98.667738 
2542.000000	98.668766 
2541.000000	98.663755 
2540.000000	98.654196 
2539.000000	98.642530 
2538.000000	98.631495 
2537.000000	98.623237 
2536.000000	98.618806 
2535.000000	98.618488 
2534.000000	98.622458 
2533.000000	98.630764 
2532.000000	98.642511 
2531.000000	98.655396 
2530.000000	98.666480 
2529.000000	98.673475 
2528.000000	98.675166 
2527.000000	98.670990 
2526.000000	98.660961 
2525.000000	98.646410 
2524.000000	98.630583 
2523.000000	98.617981 
2522.000000	98.612580 
2521.000000	98.616242 
2520.000000	98.628149 
2519.000000	98.645131 
2518.000000	98.662619 
2517.000000	98.675961 
2516.000000	98.681789 
2515.000000	98.679064 
2514.000000	98.669415 
2513.000000	98.656425 
2512.000000	98.644056 
2511.000000	98.635237 
2510.000000	98.631452 
2509.000000	98.632777 
2508.000000	98.637880 
2507.000000	98.644679 
2506.000000	98.651833 
2505.000000	98.659532 
2504.000000	98.668240 
2503.000000	98.676739 
2502.000000	98.682175 
2501.000000	98.682386 
2500.000000	98.677721 
2499.000000	98.670450 
2498.000000	98.662824 
2497.000000	98.655917 
2496.000000	98.649836 
2495.000000	98.644531 
2494.000000	98.640593 
2493.000000	98.639477 
2492.000000	98.642609 
2491.000000	98.650017 
2490.000000	98.659965 
2489.000000	98.669994 
2488.000000	98.677984 
2487.000000	98.682191 
2486.000000	98.681222 
2485.000000	98.674847 
2484.000000	98.664625 
2483.000000	98.653181 
2482.000000	98.642930 
2481.000000	98.635771 
2480.000000	98.633470 
2479.000000	98.637291 
2478.000000	98.647021 
2477.000000	98.660753 
2476.000000	98.675568 
2475.000000	98.688102 
2474.000000	98.695039 
2473.000000	98.694350 
2472.000000	98.686620 
2471.000000	98.674754 
2470.000000	98.662064 
2469.000000	98.650937 
2468.000000	98.643260 
2467.000000	98.640977 
2466.000000	98.645301 
2465.000000	98.655472 
2464.000000	98.668686 
2463.000000	98.681284 
2462.000000	98.690131 
2461.000000	98.693425 
2460.000000	98.691020 
2459.000000	98.684190 
2458.000000	98.674789 
2457.000000	98.664457 
2456.000000	98.654712 
2455.000000	98.647479 
2454.000000	98.644788 
2453.000000	98.647611 
2452.000000	98.655199 
2451.000000	98.665568 
2450.000000	98.676323 
2449.000000	98.685012 
2448.000000	98.689496 
2447.000000	98.688894 
2446.000000	98.684232 
2445.000000	98.677713 
2444.000000	98.671036 
2443.000000	98.664772 
2442.000000	98.659359 
2441.000000	98.655936 
2440.000000	98.655657 
2439.000000	98.658625 
2438.000000	98.664009 
2437.000000	98.670913 
2436.000000	98.678426 
2435.000000	98.684956 
2434.000000	98.688464 
2433.000000	98.687828 
2432.000000	98.683632 
2431.000000	98.677412 
2430.000000	98.670616 
2429.000000	98.664502 
2428.000000	98.660357 
2427.000000	98.658975 
2426.000000	98.659967 
2425.000000	98.662283 
2424.000000	98.665520 
2423.000000	98.670176 
2422.000000	98.676356 
2421.000000	98.682710 
2420.000000	98.687040 
2419.000000	98.687923 
2418.000000	98.685633 
2417.000000	98.681649 
2416.000000	98.677441 
2415.000000	98.673603 
2414.000000	98.669942 
2413.000000	98.666303 
2412.000000	98.663338 
2411.000000	98.662388 
2410.000000	98.664466 
2409.000000	98.669445 
2408.000000	98.676319 
2407.000000	98.683920 
2406.000000	98.691122 
2405.000000	98.696460 
2404.000000	98.698236 
2403.000000	98.695613 
2402.000000	98.689650 
2401.000000	98.682937 
2400.000000	98.677729 
2399.000000	98.674539 
2398.000000	98.672680 
2397.000000	98.671820 
2396.000000	98.672719 
2395.000000	98.676482 
2394.000000	98.683247 
2393.000000	98.691539 
2392.000000	98.698762 
2391.000000	98.702617 
2390.000000	98.702349 
2389.000000	98.698841 
2388.000000	98.693571 
2387.000000	98.687707 
2386.000000	98.682261 
2385.000000	98.678384 
2384.000000	98.676932 
2383.000000	98.677960 
2382.000000	98.681028 
2381.000000	98.685806 
2380.000000	98.691951 
2379.000000	98.698476 
2378.000000	98.703877 
2377.000000	98.707134 
2376.000000	98.708304 
2375.000000	98.708119 
2374.000000	98.707319 
2373.000000	98.706283 
2372.000000	98.704988 
2371.000000	98.703308 
2370.000000	98.701732 
2369.000000	98.701588 
2368.000000	98.703933 
2367.000000	98.708288 
2366.000000	98.712803 
2365.000000	98.715771 
2364.000000	98.716589 
2363.000000	98.715312 
2362.000000	98.712429 
2361.000000	98.709163 
2360.000000	98.706882 
2359.000000	98.706095 
2358.000000	98.706476 
2357.000000	98.707834 
2356.000000	98.710433 
2355.000000	98.713924 
2354.000000	98.717210 
2353.000000	98.719073 
2352.000000	98.718981 
2351.000000	98.717119 
2350.000000	98.714097 
2349.000000	98.711057 
2348.000000	98.709230 
2347.000000	98.709377 
2346.000000	98.711264 
2345.000000	98.713505 
2344.000000	98.714723 
2343.000000	98.714347 
2342.000000	98.712968 
2341.000000	98.711567 
2340.000000	98.710935 
2339.000000	98.711296 
2338.000000	98.712187 
2337.000000	98.713079 
2336.000000	98.713683 
2335.000000	98.714034 
2334.000000	98.713869 
2333.000000	98.713049 
2332.000000	98.711457 
2331.000000	98.709218 
2330.000000	98.705753 
2329.000000	98.701257 
2328.000000	98.696899 
2327.000000	98.694678 
2326.000000	98.695082 
2325.000000	98.696817 
2324.000000	98.698481 
2323.000000	98.700055 
2322.000000	98.702368 
2321.000000	98.705410 
2320.000000	98.708068 
2319.000000	98.709121 
2318.000000	98.707557 
2317.000000	98.703251 
2316.000000	98.696889 
2315.000000	98.690618 
2314.000000	98.686397 
2313.000000	98.685359 
2312.000000	98.686863 
2311.000000	98.689798 
2310.000000	98.692873 
2309.000000	98.695641 
2308.000000	98.697886 
2307.000000	98.699581 
2306.000000	98.700039 
2305.000000	98.698623 
2304.000000	98.695319 
2303.000000	98.691310 
2302.000000	98.687781 
2301.000000	98.685563 
2300.000000	98.684959 
2299.000000	98.686275 
2298.000000	98.689134 
2297.000000	98.692449 
2296.000000	98.694900 
2295.000000	98.696220 
2294.000000	98.696901 
2293.000000	98.697320 
2292.000000	98.697143 
2291.000000	98.695961 
2290.000000	98.694015 
2289.000000	98.692175 
2288.000000	98.691264 
2287.000000	98.691493 
2286.000000	98.692535 
2285.000000	98.693941 
2284.000000	98.695457 
2283.000000	98.696841 
2282.000000	98.697749 
2281.000000	98.697928 
2280.000000	98.697613 
2279.000000	98.697393 
2278.000000	98.697561 
2277.000000	98.697777 
2276.000000	98.697520 
2275.000000	98.696746 
2274.000000	98.695915 
2273.000000	98.695506 
2272.000000	98.695646 
2271.000000	98.696198 
2270.000000	98.696894 
2269.000000	98.697445 
2268.000000	98.697707 
2267.000000	98.697865 
2266.000000	98.698348 
2265.000000	98.699403 
2264.000000	98.700694 
2263.000000	98.701486 
2262.000000	98.701331 
2261.000000	98.700515 
2260.000000	98.699851 
2259.000000	98.699902 
2258.000000	98.700560 
2257.000000	98.701285 
2256.000000	98.701650 
2255.000000	98.701629 
2254.000000	98.701434 
2253.000000	98.701312 
2252.000000	98.701514 
2251.000000	98.702218 
2250.000000	98.703182 
2249.000000	98.703588 
2248.000000	98.702617 
2247.000000	98.700268 
2246.000000	98.697648 
2245.000000	98.696095 
2244.000000	98.696027 
2243.000000	98.696865 
2242.000000	98.697838 
2241.000000	98.698808 
2240.000000	98.700190 
2239.000000	98.702285 
2238.000000	98.704818 
2237.000000	98.706995 
2236.000000	98.707967 
2235.000000	98.707352 
2234.000000	98.705497 
2233.000000	98.703322 
2232.000000	98.701764 
2231.000000	98.701279 
2230.000000	98.701794 
2229.000000	98.702970 
2228.000000	98.704485 
2227.000000	98.706206 
2226.000000	98.708121 
2225.000000	98.710057 
2224.000000	98.711504 
2223.000000	98.711902 
2222.000000	98.711164 
2221.000000	98.709690 
2220.000000	98.707827 
2219.000000	98.705682 
2218.000000	98.703664 
2217.000000	98.702760 
2216.000000	98.703717 
2215.000000	98.706118 
2214.000000	98.708765 
2213.000000	98.710970 
2212.000000	98.712947 
2211.000000	98.714959 
2210.000000	98.716671 
2209.000000	98.717510 
2208.000000	98.717159 
2207.000000	98.715548 
2206.000000	98.712874 
2205.000000	98.710075 
2204.000000	98.708631 
2203.000000	98.709284 
2202.000000	98.711317 
2201.000000	98.713244 
2200.000000	98.714219 
2199.000000	98.714485 
2198.000000	98.714712 
2197.000000	98.715354 
2196.000000	98.716453 
2195.000000	98.717600 
2194.000000	98.718061 
2193.000000	98.717286 
2192.000000	98.715376 
2191.000000	98.713020 
2190.000000	98.711058 
2189.000000	98.710072 
2188.000000	98.710118 
2187.000000	98.710623 
2186.000000	98.710885 
2185.000000	98.710991 
2184.000000	98.711853 
2183.000000	98.713970 
2182.000000	98.716484 
2181.000000	98.717955 
2180.000000	98.717932 
2179.000000	98.717126 
2178.000000	98.716206 
2177.000000	98.715083 
2176.000000	98.713538 
2175.000000	98.711878 
2174.000000	98.710582 
2173.000000	98.709681 
2172.000000	98.708932 
2171.000000	98.708507 
2170.000000	98.709109 
2169.000000	98.711300 
2168.000000	98.714776 
2167.000000	98.718227 
2166.000000	98.720107 
2165.000000	98.719807 
2164.000000	98.718053 
2163.000000	98.716230 
2162.000000	98.715088 
2161.000000	98.714406 
2160.000000	98.713816 
2159.000000	98.713432 
2158.000000	98.713590 
2157.000000	98.714407 
2156.000000	98.715813 
2155.000000	98.717702 
2154.000000	98.719675 
2153.000000	98.720867 
2152.000000	98.720461 
2151.000000	98.718397 
2150.000000	98.715520 
2149.000000	98.713077 
2148.000000	98.711865 
2147.000000	98.711844 
2146.000000	98.712353 
2145.000000	98.712741 
2144.000000	98.713003 
2143.000000	98.713703 
2142.000000	98.715254 
2141.000000	98.717397 
2140.000000	98.719289 
2139.000000	98.720143 
2138.000000	98.719771 
2137.000000	98.718636 
2136.000000	98.717503 
2135.000000	98.716869 
2134.000000	98.716679 
2133.000000	98.716579 
2132.000000	98.716377 
2131.000000	98.716221 
2130.000000	98.716351 
2129.000000	98.716795 
2128.000000	98.717372 
2127.000000	98.717889 
2126.000000	98.718241 
2125.000000	98.718347 
2124.000000	98.718113 
2123.000000	98.717559 
2122.000000	98.716971 
2121.000000	98.716741 
2120.000000	98.716965 
2119.000000	98.717269 
2118.000000	98.717178 
2117.000000	98.716716 
2116.000000	98.716444 
2115.000000	98.716833 
2114.000000	98.717809 
2113.000000	98.718914 
2112.000000	98.719768 
2111.000000	98.720219 
2110.000000	98.720171 
2109.000000	98.719630 
2108.000000	98.718942 
2107.000000	98.718629 
2106.000000	98.718819 
2105.000000	98.719045 
2104.000000	98.718745 
2103.000000	98.717900 
2102.000000	98.717101 
2101.000000	98.717003 
2100.000000	98.717795 
2099.000000	98.719128 
2098.000000	98.720381 
2097.000000	98.721098 
2096.000000	98.721156 
2095.000000	98.720694 
2094.000000	98.719982 
2093.000000	98.719281 
2092.000000	98.718685 
2091.000000	98.717977 
2090.000000	98.716832 
2089.000000	98.715349 
2088.000000	98.714255 
2087.000000	98.714311 
2086.000000	98.715649 
2085.000000	98.717804 
2084.000000	98.720226 
2083.000000	98.722515 
2082.000000	98.724276 
2081.000000	98.725151 
2080.000000	98.725039 
2079.000000	98.724017 
2078.000000	98.722150 
2077.000000	98.719710 
2076.000000	98.717479 
2075.000000	98.716392 
2074.000000	98.716800 
2073.000000	98.718325 
2072.000000	98.720286 
2071.000000	98.722048 
2070.000000	98.723106 
2069.000000	98.723268 
2068.000000	98.722871 
2067.000000	98.722415 
2066.000000	98.721899 
2065.000000	98.720926 
2064.000000	98.719511 
2063.000000	98.718338 
2062.000000	98.718053 
2061.000000	98.718731 
2060.000000	98.720104 
2059.000000	98.721887 
2058.000000	98.723655 
2057.000000	98.724802 
2056.000000	98.724940 
2055.000000	98.724169 
2054.000000	98.722922 
2053.000000	98.721675 
2052.000000	98.720667 
2051.000000	98.719678 
2050.000000	98.718228 
2049.000000	98.716278 
2048.000000	98.714645 
2047.000000	98.714293 
2046.000000	98.715341 
2045.000000	98.717113 
2044.000000	98.718887 
2043.000000	98.720223 
2042.000000	98.720670 
2041.000000	98.719849 
2040.000000	98.718117 
2039.000000	98.716529 
2038.000000	98.715740 
2037.000000	98.715402 
2036.000000	98.714867 
2035.000000	98.714033 
2034.000000	98.713236 
2033.000000	98.712734 
2032.000000	98.712612 
2031.000000	98.712830 
2030.000000	98.713024 
2029.000000	98.712650 
2028.000000	98.711705 
2027.000000	98.710921 
2026.000000	98.710788 
2025.000000	98.710765 
2024.000000	98.709937 
2023.000000	98.708136 
2022.000000	98.705916 
2021.000000	98.703824 
2020.000000	98.702249 
2019.000000	98.701662 
2018.000000	98.702299 
2017.000000	98.703600 
2016.000000	98.704646 
2015.000000	98.705182 
2014.000000	98.705604 
2013.000000	98.706143 
2012.000000	98.706634 
2011.000000	98.706924 
2010.000000	98.706904 
2009.000000	98.706142 
2008.000000	98.704170 
2007.000000	98.701294 
2006.000000	98.698605 
2005.000000	98.696908 
2004.000000	98.696128 
2003.000000	98.695982 
2002.000000	98.696676 
2001.000000	98.698462 
2000.000000	98.700803 
1999.000000	98.702541 
1998.000000	98.702974 
1997.000000	98.702385 
1996.000000	98.701460 
1995.000000	98.700493 
1994.000000	98.699349 
1993.000000	98.698057 
1992.000000	98.697157 
1991.000000	98.697367 
1990.000000	98.698959 
1989.000000	98.701530 
1988.000000	98.704253 
1987.000000	98.706419 
1986.000000	98.707860 
1985.000000	98.708869 
1984.000000	98.709635 
1983.000000	98.709828 
1982.000000	98.708941 
1981.000000	98.707036 
1980.000000	98.705051 
1979.000000	98.704176 
1978.000000	98.704916 
1977.000000	98.706827 
1976.000000	98.708888 
1975.000000	98.710270 
1974.000000	98.710892 
1973.000000	98.711342 
1972.000000	98.712283 
1971.000000	98.713795 
1970.000000	98.715273 
1969.000000	98.716014 
1968.000000	98.715834 
1967.000000	98.715128 
1966.000000	98.714484 
1965.000000	98.714333 
1964.000000	98.714860 
1963.000000	98.715975 
1962.000000	98.717257 
1961.000000	98.718206 
1960.000000	98.718740 
1959.000000	98.719277 
1958.000000	98.720217 
1957.000000	98.721366 
1956.000000	98.721964 
1955.000000	98.721289 
1954.000000	98.719253 
1953.000000	98.716613 
1952.000000	98.714552 
1951.000000	98.713872 
1950.000000	98.714561 
1949.000000	98.716037 
1948.000000	98.717653 
1947.000000	98.718811 
1946.000000	98.718984 
1945.000000	98.718248 
1944.000000	98.717727 
1943.000000	98.718780 
1942.000000	98.721461 
1941.000000	98.724327 
1940.000000	98.726014 
1939.000000	98.726135 
1938.000000	98.724700 
1937.000000	98.721770 
1936.000000	98.718057 
1935.000000	98.715098 
1934.000000	98.714038 
1933.000000	98.714619 
1932.000000	98.715747 
1931.000000	98.716808 
1930.000000	98.717906 
1929.000000	98.719155 
1928.000000	98.720210 
1927.000000	98.720269 
1926.000000	98.718547 
1925.000000	98.714924 
1924.000000	98.710387 
1923.000000	98.706260 
1922.000000	98.702845 
1921.000000	98.699613 
1920.000000	98.696877 
1919.000000	98.696134 
1918.000000	98.698164 
1917.000000	98.701613 
1916.000000	98.704599 
1915.000000	98.706542 
1914.000000	98.707407 
1913.000000	98.706459 
1912.000000	98.702856 
1911.000000	98.696851 
1910.000000	98.689510 
1909.000000	98.681772 
1908.000000	98.674317 
1907.000000	98.667776 
1906.000000	98.662657 
1905.000000	98.659204 
1904.000000	98.657952 
1903.000000	98.659543 
1902.000000	98.663194 
1901.000000	98.666101 
1900.000000	98.665531 
1899.000000	98.661245 
1898.000000	98.655252 
1897.000000	98.649422 
1896.000000	98.644139 
1895.000000	98.638992 
1894.000000	98.633978 
1893.000000	98.629924 
1892.000000	98.628155 
1891.000000	98.629628 
1890.000000	98.633723 
1889.000000	98.637956 
1888.000000	98.639960 
1887.000000	98.639326 
1886.000000	98.636888 
1885.000000	98.633270 
1884.000000	98.628586 
1883.000000	98.622997 
1882.000000	98.617296 
1881.000000	98.613305 
1880.000000	98.613197 
1879.000000	98.617335 
1878.000000	98.622887 
1877.000000	98.625791 
1876.000000	98.624866 
1875.000000	98.622687 
1874.000000	98.621797 
1873.000000	98.621825 
1872.000000	98.621457 
1871.000000	98.621412 
1870.000000	98.623442 
1869.000000	98.626951 
1868.000000	98.629137 
1867.000000	98.628986 
1866.000000	98.628117 
1865.000000	98.628012 
1864.000000	98.628952 
1863.000000	98.631239 
1862.000000	98.635767 
1861.000000	98.642916 
1860.000000	98.651713 
1859.000000	98.660337 
1858.000000	98.666928 
1857.000000	98.670205 
1856.000000	98.670466 
1855.000000	98.669943 
1854.000000	98.671150 
1853.000000	98.674597 
1852.000000	98.678580 
1851.000000	98.680932 
1850.000000	98.680918 
1849.000000	98.679550 
1848.000000	98.678888 
1847.000000	98.681006 
1846.000000	98.686965 
1845.000000	98.695761 
1844.000000	98.704328 
1843.000000	98.710336 
1842.000000	98.713927 
1841.000000	98.715718 
1840.000000	98.715397 
1839.000000	98.712617 
1838.000000	98.708241 
1837.000000	98.704094 
1836.000000	98.701792 
1835.000000	98.701963 
1834.000000	98.704483 
1833.000000	98.709169 
1832.000000	98.716014 
1831.000000	98.724184 
1830.000000	98.730871 
1829.000000	98.732833 
1828.000000	98.729710 
1827.000000	98.723961 
1826.000000	98.718058 
1825.000000	98.712633 
1824.000000	98.707269 
1823.000000	98.702554 
1822.000000	98.700228 
1821.000000	98.701469 
1820.000000	98.705784 
1819.000000	98.711599 
1818.000000	98.717397 
1817.000000	98.721748 
1816.000000	98.723319 
1815.000000	98.721719 
1814.000000	98.717969 
1813.000000	98.713731 
1812.000000	98.709855 
1811.000000	98.706048 
1810.000000	98.701816 
1809.000000	98.697702 
1808.000000	98.695551 
1807.000000	98.697103 
1806.000000	98.702259 
1805.000000	98.708798 
1804.000000	98.714045 
1803.000000	98.716699 
1802.000000	98.716795 
1801.000000	98.714647 
1800.000000	98.710433 
1799.000000	98.704915 
1798.000000	98.699378 
1797.000000	98.694765 
1796.000000	98.691452 
1795.000000	98.689863 
1794.000000	98.690790 
1793.000000	98.694533 
1792.000000	98.699674 
1791.000000	98.704099 
1790.000000	98.707026 
1789.000000	98.708811 
1788.000000	98.709777 
1787.000000	98.709865 
1786.000000	98.708884 
1785.000000	98.706856 
1784.000000	98.704210 
1783.000000	98.701579 
1782.000000	98.699408 
1781.000000	98.698054 
1780.000000	98.697631 
1779.000000	98.698229 
1778.000000	98.700000 
1777.000000	98.702869 
1776.000000	98.706327 
1775.000000	98.709785 
1774.000000	98.713147 
1773.000000	98.715998 
1772.000000	98.716460 
1771.000000	98.713129 
1770.000000	98.707254 
1769.000000	98.701429 
1768.000000	98.697815 
1767.000000	98.697204 
1766.000000	98.699102 
1765.000000	98.703124 
1764.000000	98.709777 
1763.000000	98.719308 
1762.000000	98.729461 
1761.000000	98.735919 
1760.000000	98.736074 
1759.000000	98.730674 
1758.000000	98.721975 
1757.000000	98.712205 
1756.000000	98.702960 
1755.000000	98.695113 
1754.000000	98.689523 
1753.000000	98.687766 
1752.000000	98.691487 
1751.000000	98.700141 
1750.000000	98.710096 
1749.000000	98.717124 
1748.000000	98.718785 
1747.000000	98.714546 
1746.000000	98.705819 
1745.000000	98.695440 
1744.000000	98.685891 
1743.000000	98.678225 
1742.000000	98.672708 
1741.000000	98.670175 
1740.000000	98.671491 
1739.000000	98.675178 
1738.000000	98.677856 
1737.000000	98.678209 
1736.000000	98.678044 
1735.000000	98.678988 
1734.000000	98.678053 
1733.000000	98.671779 
1732.000000	98.662973 
1731.000000	98.655512 
1730.000000	98.649837 
1729.000000	98.644298 
1728.000000	98.637975 
1727.000000	98.631642 
1726.000000	98.626527 
1725.000000	98.623354 
1724.000000	98.622465 
1723.000000	98.623837 
1722.000000	98.625845 
1721.000000	98.625491 
1720.000000	98.620644 
1719.000000	98.611355 
1718.000000	98.599242 
1717.000000	98.586446 
1716.000000	98.575074 
1715.000000	98.566059 
1714.000000	98.558850 
1713.000000	98.552643 
1712.000000	98.547829 
1711.000000	98.545519 
1710.000000	98.545374 
1709.000000	98.544961 
1708.000000	98.542243 
1707.000000	98.537530 
1706.000000	98.531465 
1705.000000	98.522401 
1704.000000	98.508813 
1703.000000	98.491871 
1702.000000	98.474504 
1701.000000	98.459748 
1700.000000	98.448562 
1699.000000	98.440371 
1698.000000	98.434598 
1697.000000	98.431127 
1696.000000	98.429388 
1695.000000	98.426776 
1694.000000	98.421099 
1693.000000	98.412422 
1692.000000	98.401864 
1691.000000	98.390678 
1690.000000	98.379085 
1689.000000	98.365808 
1688.000000	98.349362 
1687.000000	98.329627 
1686.000000	98.309195 
1685.000000	98.293280 
1684.000000	98.286267 
1683.000000	98.286036 
1682.000000	98.286278 
1681.000000	98.283573 
1680.000000	98.277335 
1679.000000	98.267634 
1678.000000	98.254938 
1677.000000	98.240180 
1676.000000	98.224092 
1675.000000	98.207098 
1674.000000	98.190514 
1673.000000	98.176115 
1672.000000	98.164338 
1671.000000	98.155045 
1670.000000	98.147697 
1669.000000	98.142262 
1668.000000	98.139493 
1667.000000	98.138597 
1666.000000	98.137085 
1665.000000	98.132700 
1664.000000	98.123976 
1663.000000	98.109973 
1662.000000	98.091524 
1661.000000	98.072966 
1660.000000	98.058492 
1659.000000	98.048629 
1658.000000	98.040592 
1657.000000	98.030801 
1656.000000	98.018023 
1655.000000	98.005629 
1654.000000	97.999410 
1653.000000	97.996968 
1652.000000	97.992342 
1651.000000	97.987045 
1650.000000	97.980750 
1649.000000	97.972568 
1648.000000	97.964626 
1647.000000	97.959451 
1646.000000	97.957074 
1645.000000	97.956797 
1644.000000	97.958453 
1643.000000	97.960706 
1642.000000	97.960620 
1641.000000	97.956955 
1640.000000	97.952026 
1639.000000	97.949245 
1638.000000	97.949842 
1637.000000	97.952370 
1636.000000	97.954207 
1635.000000	97.953459 
1634.000000	97.951231 
1633.000000	97.948679 
1632.000000	97.947501 
1631.000000	97.950486 
1630.000000	97.958526 
1629.000000	97.969019 
1628.000000	97.979103 
1627.000000	97.989191 
1626.000000	98.000921 
1625.000000	98.013866 
1624.000000	98.024929 
1623.000000	98.030680 
1622.000000	98.031172 
1621.000000	98.030408 
1620.000000	98.032169 
1619.000000	98.038580 
1618.000000	98.050372 
1617.000000	98.065243 
1616.000000	98.079273 
1615.000000	98.090994 
1614.000000	98.100148 
1613.000000	98.106425 
1612.000000	98.111565 
1611.000000	98.119278 
1610.000000	98.131773 
1609.000000	98.147624 
1608.000000	98.163550 
1607.000000	98.177425 
1606.000000	98.188834 
1605.000000	98.198028 
1604.000000	98.204721 
1603.000000	98.208805 
1602.000000	98.211842 
1601.000000	98.216478 
1600.000000	98.224678 
1599.000000	98.236592 
1598.000000	98.250667 
1597.000000	98.264471 
1596.000000	98.275862 
1595.000000	98.284048 
1594.000000	98.289920 
1593.000000	98.295330 
1592.000000	98.301591 
1591.000000	98.308575 
1590.000000	98.315269 
1589.000000	98.321259 
1588.000000	98.327440 
1587.000000	98.335098 
1586.000000	98.344513 
1585.000000	98.354718 
1584.000000	98.364547 
1583.000000	98.373403 
1582.000000	98.381369 
1581.000000	98.388773 
1580.000000	98.395712 
1579.000000	98.402004 
1578.000000	98.407518 
1577.000000	98.412152 
1576.000000	98.416042 
1575.000000	98.420219 
1574.000000	98.425657 
1573.000000	98.432341 
1572.000000	98.440105 
1571.000000	98.449033 
1570.000000	98.458606 
1569.000000	98.467422 
1568.000000	98.474651 
1567.000000	98.480482 
1566.000000	98.485401 
1565.000000	98.489638 
1564.000000	98.493231 
1563.000000	98.496285 
1562.000000	98.499376 
1561.000000	98.503855 
1560.000000	98.511522 
1559.000000	98.521578 
1558.000000	98.529474 
1557.000000	98.534445 
1556.000000	98.538473 
1555.000000	98.542721 
1554.000000	98.547187 
1553.000000	98.551216 
1552.000000	98.554324 
1551.000000	98.556833 
1550.000000	98.559698 
1549.000000	98.563517 
1548.000000	98.567988 
1547.000000	98.572441 
1546.000000	98.576545 
1545.000000	98.580440 
1544.000000	98.584641 
1543.000000	98.589787 
1542.000000	98.596249 
1541.000000	98.603307 
1540.000000	98.608915 
1539.000000	98.612085 
1538.000000	98.614175 
1537.000000	98.616237 
1536.000000	98.618200 
1535.000000	98.620007 
1534.000000	98.621945 
1533.000000	98.624271 
1532.000000	98.626933 
1531.000000	98.629837 
1530.000000	98.633081 
1529.000000	98.636824 
1528.000000	98.641178 
1527.000000	98.646175 
1526.000000	98.651519 
1525.000000	98.656378 
1524.000000	98.659814 
1523.000000	98.661437 
1522.000000	98.661674 
1521.000000	98.661767 
1520.000000	98.662954 
1519.000000	98.665531 
1518.000000	98.669565 
1517.000000	98.675180 
1516.000000	98.681560 
1515.000000	98.687145 
1514.000000	98.690995 
1513.000000	98.693048 
1512.000000	98.693399 
1511.000000	98.692144 
1510.000000	98.689452 
1509.000000	98.686117 
1508.000000	98.684581 
1507.000000	98.688374 
1506.000000	98.697134 
1505.000000	98.705468 
1504.000000	98.710597 
1503.000000	98.713332 
1502.000000	98.715290 
1501.000000	98.717399 
1500.000000	98.718861 
1499.000000	98.717556 
1498.000000	98.712345 
1497.000000	98.705278 
1496.000000	98.701197 
1495.000000	98.703143 
1494.000000	98.709334 
1493.000000	98.716018 
1492.000000	98.720985 
1491.000000	98.724348 
1490.000000	98.727110 
1489.000000	98.729262 
1488.000000	98.729588 
1487.000000	98.727145 
1486.000000	98.721761 
1485.000000	98.714385 
1484.000000	98.707490 
1483.000000	98.703789 
1482.000000	98.704480 
1481.000000	98.707583 
1480.000000	98.709537 
1479.000000	98.708888 
1478.000000	98.707048 
1477.000000	98.705754 
1476.000000	98.704955 
1475.000000	98.703470 
1474.000000	98.700506 
1473.000000	98.696025 
1472.000000	98.689977 
1471.000000	98.682651 
1470.000000	98.674445 
1469.000000	98.665945 
1468.000000	98.658532 
1467.000000	98.653944 
1466.000000	98.652278 
1465.000000	98.650749 
1464.000000	98.645798 
1463.000000	98.636946 
1462.000000	98.625999 
1461.000000	98.614171 
1460.000000	98.602376 
1459.000000	98.592471 
1458.000000	98.586681 
1457.000000	98.583281 
1456.000000	98.577142 
1455.000000	98.567715 
1454.000000	98.558507 
1453.000000	98.552929 
1452.000000	98.552291 
1451.000000	98.554505 
1450.000000	98.555497 
1449.000000	98.552809 
1448.000000	98.547414 
1447.000000	98.542174 
1446.000000	98.537961 
1445.000000	98.532896 
1444.000000	98.524391 
1443.000000	98.512256 
1442.000000	98.499498 
1441.000000	98.489476 
1440.000000	98.482983 
1439.000000	98.478971 
1438.000000	98.477112 
1437.000000	98.477092 
1436.000000	98.476547 
1435.000000	98.473062 
1434.000000	98.466862 
1433.000000	98.459547 
1432.000000	98.452571 
1431.000000	98.446061 
1430.000000	98.439072 
1429.000000	98.431296 
1428.000000	98.423973 
1427.000000	98.418819 
1426.000000	98.416887 
1425.000000	98.418810 
1424.000000	98.423157 
1423.000000	98.425916 
1422.000000	98.424158 
1421.000000	98.419208 
1420.000000	98.415532 
1419.000000	98.415957 
1418.000000	98.418230 
1417.000000	98.418025 
1416.000000	98.413736 
1415.000000	98.406758 
1414.000000	98.399571 
1413.000000	98.394586 
1412.000000	98.393676 
1411.000000	98.397318 
1410.000000	98.403507 
1409.000000	98.408462 
1408.000000	98.409696 
1407.000000	98.408414 
1406.000000	98.408645 
1405.000000	98.414180 
1404.000000	98.424684 
1403.000000	98.435548 
1402.000000	98.442860 
1401.000000	98.447267 
1400.000000	98.452732 
1399.000000	98.461481 
1398.000000	98.470445 
1397.000000	98.474595 
1396.000000	98.473087 
1395.000000	98.471030 
1394.000000	98.475180 
1393.000000	98.487279 
1392.000000	98.503033 
1391.000000	98.516975 
1390.000000	98.526267 
1389.000000	98.531276 
1388.000000	98.534418 
1387.000000	98.538319 
1386.000000	98.543809 
1385.000000	98.549689 
1384.000000	98.554281 
1383.000000	98.556821 
1382.000000	98.557831 
1381.000000	98.558562 
1380.000000	98.560383 
1379.000000	98.564428 
1378.000000	98.571300 
1377.000000	98.580646 
1376.000000	98.590836 
1375.000000	98.599231 
1374.000000	98.604051 
1373.000000	98.606806 
1372.000000	98.611280 
1371.000000	98.619888 
1370.000000	98.631808 
1369.000000	98.644076 
1368.000000	98.653976 
1367.000000	98.660846 
1366.000000	98.665612 
1365.000000	98.669171 
1364.000000	98.671870 
1363.000000	98.674172 
1362.000000	98.676808 
1361.000000	98.679683 
1360.000000	98.681634 
1359.000000	98.682344 
1358.000000	98.684036 
1357.000000	98.690295 
1356.000000	98.702310 
1355.000000	98.716325 
1354.000000	98.726029 
1353.000000	98.728228 
1352.000000	98.725345 
1351.000000	98.722553 
1350.000000	98.722734 
1349.000000	98.724834 
1348.000000	98.726325 
1347.000000	98.726122 
1346.000000	98.724620 
1345.000000	98.722344 
1344.000000	98.719894 
1343.000000	98.718649 
1342.000000	98.719806 
1341.000000	98.722250 
1340.000000	98.722587 
1339.000000	98.718791 
1338.000000	98.713302 
1337.000000	98.710750 
1336.000000	98.713186 
1335.000000	98.718622 
1334.000000	98.723220 
1333.000000	98.724394 
1332.000000	98.722511 
1331.000000	98.720498 
1330.000000	98.721339 
1329.000000	98.725046 
1328.000000	98.728287 
1327.000000	98.727810 
1326.000000	98.724063 
1325.000000	98.720868 
1324.000000	98.721459 
1323.000000	98.725427 
1322.000000	98.729308 
1321.000000	98.729382 
1320.000000	98.724157 
1319.000000	98.715602 
1318.000000	98.708414 
1317.000000	98.706704 
1316.000000	98.710890 
1315.000000	98.717913 
1314.000000	98.724060 
1313.000000	98.727378 
1312.000000	98.727948 
1311.000000	98.727041 
1310.000000	98.726384 
1309.000000	98.727118 
1308.000000	98.728642 
1307.000000	98.728981 
1306.000000	98.726787 
1305.000000	98.722801 
1304.000000	98.719244 
1303.000000	98.718238 
1302.000000	98.720528 
1301.000000	98.724763 
1300.000000	98.727869 
1299.000000	98.727368 
1298.000000	98.723962 
1297.000000	98.721249 
1296.000000	98.722262 
1295.000000	98.726559 
1294.000000	98.730976 
1293.000000	98.732380 
1292.000000	98.729321 
1291.000000	98.722455 
1290.000000	98.714657 
1289.000000	98.709681 
1288.000000	98.709227 
1287.000000	98.711584 
1286.000000	98.713941 
1285.000000	98.715416 
1284.000000	98.716747 
1283.000000	98.718069 
1282.000000	98.718751 
1281.000000	98.718809 
1280.000000	98.718391 
1279.000000	98.716092 
1278.000000	98.710230 
1277.000000	98.702242 
1276.000000	98.696573 
1275.000000	98.696294 
1274.000000	98.700655 
1273.000000	98.707662 
1272.000000	98.716652 
1271.000000	98.726627 
1270.000000	98.734258 
1269.000000	98.736232 
1268.000000	98.732800 
1267.000000	98.727274 
1266.000000	98.722606 
1265.000000	98.719547 
1264.000000	98.717368 
1263.000000	98.715329 
1262.000000	98.714373 
1261.000000	98.717802 
1260.000000	98.727898 
1259.000000	98.740307 
1258.000000	98.744996 
1257.000000	98.736137 
1256.000000	98.719307 
1255.000000	98.705766 
1254.000000	98.700405 
1253.000000	98.698674 
1252.000000	98.694746 
1251.000000	98.688128 
1250.000000	98.681491 
1249.000000	98.676284 
1248.000000	98.672621 
1247.000000	98.670276 
1246.000000	98.667175 
1245.000000	98.659076 
1244.000000	98.643661 
1243.000000	98.624314 
1242.000000	98.608028 
1241.000000	98.599652 
1240.000000	98.598600 
1239.000000	98.599655 
1238.000000	98.595994 
1237.000000	98.583168 
1236.000000	98.562035 
1235.000000	98.537900 
1234.000000	98.516180 
1233.000000	98.498752 
1232.000000	98.483626 
1231.000000	98.466302 
1230.000000	98.441707 
1229.000000	98.407508 
1228.000000	98.366627 
1227.000000	98.324733 
1226.000000	98.284181 
1225.000000	98.241784 
1224.000000	98.192933 
1223.000000	98.135524 
1222.000000	98.069205 
1221.000000	97.993889 
1220.000000	97.911175 
1219.000000	97.824941 
1218.000000	97.737821 
1217.000000	97.648233 
1216.000000	97.552911 
1215.000000	97.451294 
1214.000000	97.345802 
1213.000000	97.238623 
1212.000000	97.129351 
1211.000000	97.015205 
1210.000000	96.893648 
1209.000000	96.766577 
1208.000000	96.641455 
1207.000000	96.524975 
1206.000000	96.415487 
1205.000000	96.305660 
1204.000000	96.192495 
1203.000000	96.079839 
1202.000000	95.970822 
1201.000000	95.863374 
1200.000000	95.754769 
1199.000000	95.645491 
1198.000000	95.536374 
1197.000000	95.426211 
1196.000000	95.314343 
1195.000000	95.202002 
1194.000000	95.089826 
1193.000000	94.977720 
1192.000000	94.867537 
1191.000000	94.761300 
1190.000000	94.656407 
1189.000000	94.547949 
1188.000000	94.436387 
1187.000000	94.327018 
1186.000000	94.220839 
1185.000000	94.112331 
1184.000000	93.997743 
1183.000000	93.878763 
1182.000000	93.756137 
1181.000000	93.627087 
1180.000000	93.492311 
1179.000000	93.358395 
1178.000000	93.228526 
1177.000000	93.096187 
1176.000000	92.952167 
1175.000000	92.793438 
1174.000000	92.622763 
1173.000000	92.444927 
1172.000000	92.265800 
1171.000000	92.088971 
1170.000000	91.910315 
1169.000000	91.722224 
1168.000000	91.526663 
1167.000000	91.338606 
1166.000000	91.174984 
1165.000000	91.047615 
1164.000000	90.968110 
1163.000000	90.948612 
1162.000000	90.991537 
1161.000000	91.084511 
1160.000000	91.207031 
1159.000000	91.334339 
1158.000000	91.435394 
1157.000000	91.480783 
1156.000000	91.460062 
1155.000000	91.386238 
1154.000000	91.279991 
1153.000000	91.154080 
1152.000000	91.014657 
1151.000000	90.868260 
1150.000000	90.720136 
1149.000000	90.571034 
1148.000000	90.421273 
1147.000000	90.273488 
1146.000000	90.127608 
1145.000000	89.978403 
1144.000000	89.821519 
1143.000000	89.657455 
1142.000000	89.488270 
1141.000000	89.316475 
1140.000000	89.147878 
1139.000000	88.987501 
1138.000000	88.830995 
1137.000000	88.668333 
1136.000000	88.497273 
1135.000000	88.324320 
1134.000000	88.151628 
1133.000000	87.973699 
1132.000000	87.789135 
1131.000000	87.604180 
1130.000000	87.421276 
1129.000000	87.235115 
1128.000000	87.043877 
1127.000000	86.853687 
1126.000000	86.668075 
1125.000000	86.483219 
1124.000000	86.296948 
1123.000000	86.111916 
1122.000000	85.927127 
1121.000000	85.737298 
1120.000000	85.543130 
1119.000000	85.350977 
1118.000000	85.161385 
1117.000000	84.971062 
1116.000000	84.786234 
1115.000000	84.617613 
1114.000000	84.459864 
1113.000000	84.293478 
1112.000000	84.111034 
1111.000000	83.923993 
1110.000000	83.740483 
1109.000000	83.555355 
1108.000000	83.366589 
1107.000000	83.182444 
1106.000000	83.005679 
1105.000000	82.827705 
1104.000000	82.644569 
1103.000000	82.462248 
1102.000000	82.280798 
1101.000000	82.090589 
1100.000000	81.890249 
1099.000000	81.691752 
1098.000000	81.502028 
1097.000000	81.315995 
1096.000000	81.132061 
1095.000000	80.956254 
1094.000000	80.785832 
1093.000000	80.607586 
1092.000000	80.418438 
1091.000000	80.230273 
1090.000000	80.050128 
1089.000000	79.874011 
1088.000000	79.703174 
1087.000000	79.545534 
1086.000000	79.397238 
1085.000000	79.245126 
1084.000000	79.091867 
1083.000000	78.955076 
1082.000000	78.835865 
1081.000000	78.712740 
1080.000000	78.574712 
1079.000000	78.436560 
1078.000000	78.312366 
1077.000000	78.196653 
1076.000000	78.081123 
1075.000000	77.966743 
1074.000000	77.848458 
1073.000000	77.709166 
1072.000000	77.539655 
1071.000000	77.346380 
1070.000000	77.132425 
1069.000000	76.890284 
1068.000000	76.620574 
1067.000000	76.337661 
1066.000000	76.049292 
1065.000000	75.751097 
1064.000000	75.448626 
1063.000000	75.161774 
1062.000000	74.897581 
1061.000000	74.640300 
1060.000000	74.377787 
1059.000000	74.116710 
1058.000000	73.864201 
1057.000000	73.616815 
1056.000000	73.375659 
1055.000000	73.149249 
1054.000000	72.931598 
1053.000000	72.699321 
1052.000000	72.440988 
1051.000000	72.168717 
1050.000000	71.891984 
1049.000000	71.604133 
1048.000000	71.303181 
1047.000000	70.998516 
1046.000000	70.689230 
1045.000000	70.362053 
1044.000000	70.016280 
1043.000000	69.666456 
1042.000000	69.316689 
1041.000000	68.957015 
1040.000000	68.589430 
1039.000000	68.232059 
1038.000000	67.893566 
1037.000000	67.570065 
1036.000000	67.269998 
1035.000000	67.011914 
1034.000000	66.792074 
1033.000000	66.583642 
1032.000000	66.374095 
1031.000000	66.175615 
1030.000000	65.995508 
1029.000000	65.828067 
1028.000000	65.679163 
1027.000000	65.564620 
1026.000000	65.477154 
1025.000000	65.387190 
1024.000000	65.283981 
1023.000000	65.184933 
1022.000000	65.098768 
1021.000000	65.012085 
1020.000000	64.918013 
1019.000000	64.824934 
1018.000000	64.730201 
1017.000000	64.618558 
1016.000000	64.494154 
1015.000000	64.381954 
1014.000000	64.290026 
1013.000000	64.201515 
1012.000000	64.109449 
1011.000000	64.026580 
1010.000000	63.954674 
1009.000000	63.878112 
1008.000000	63.795582 
1007.000000	63.725019 
1006.000000	63.669454 
1005.000000	63.611097 
1004.000000	63.547441 
1003.000000	63.500576 
1002.000000	63.482159 
1001.000000	63.480246 
1000.000000	63.486858 
999.000000	 63.505943 
998.000000	 63.528318 
997.000000	 63.534303 
996.000000	 63.530234 
995.000000	 63.547935 
994.000000	 63.598150 
993.000000	 63.657004 
992.000000	 63.706991 
991.000000	 63.758089 
990.000000	 63.818579 
989.000000	 63.879818 
988.000000	 63.942812 
987.000000	 64.027589 
986.000000	 64.141974 
985.000000	 64.269717 
984.000000	 64.401465 
983.000000	 64.550129 
982.000000	 64.725261 
981.000000	 64.920203 
980.000000	 65.134334 
979.000000	 65.379742 
978.000000	 65.655120 
977.000000	 65.939845 
976.000000	 66.224225 
975.000000	 66.521337 
974.000000	 66.841063 
973.000000	 67.177406 
972.000000	 67.528228 
971.000000	 67.901949 
970.000000	 68.297165 
969.000000	 68.699374 
968.000000	 69.103889 
967.000000	 69.518872 
966.000000	 69.941558 
965.000000	 70.355528 
964.000000	 70.755501 
963.000000	 71.150992 
962.000000	 71.542349 
961.000000	 71.917763 
960.000000	 72.277324 
959.000000	 72.634971 
958.000000	 72.992056 
957.000000	 73.332943 
956.000000	 73.651577 
955.000000	 73.959153 
954.000000	 74.261214 
953.000000	 74.549861 
952.000000	 74.822321 
951.000000	 75.084227 
950.000000	 75.330895 
949.000000	 75.548521 
948.000000	 75.738148 
947.000000	 75.916017 
946.000000	 76.086628 
945.000000	 76.238061 
944.000000	 76.367453 
943.000000	 76.487701 
942.000000	 76.605282 
941.000000	 76.715179 
940.000000	 76.821592 
939.000000	 76.937914 
938.000000	 77.060277 
937.000000	 77.167064 
936.000000	 77.252956 
935.000000	 77.339667 
934.000000	 77.444271 
933.000000	 77.559243 
932.000000	 77.672145 
931.000000	 77.782753 
930.000000	 77.892443 
929.000000	 77.998157 
928.000000	 78.105477 
927.000000	 78.227540 
926.000000	 78.363105 
925.000000	 78.494409 
924.000000	 78.612115 
923.000000	 78.722880 
922.000000	 78.828718 
921.000000	 78.921306 
920.000000	 79.001853 
919.000000	 79.083417 
918.000000	 79.166859 
917.000000	 79.237197 
916.000000	 79.291700 
915.000000	 79.350095 
914.000000	 79.429684 
913.000000	 79.532383 
912.000000	 79.663087 
911.000000	 79.836334 
910.000000	 80.054119 
909.000000	 80.298866 
908.000000	 80.559158 
907.000000	 80.843267 
906.000000	 81.158853 
905.000000	 81.499700 
904.000000	 81.860856 
903.000000	 82.246863 
902.000000	 82.655746 
901.000000	 83.072227 
900.000000	 83.484950 
899.000000	 83.895501 
898.000000	 84.305519 
897.000000	 84.710145 
896.000000	 85.107075 
895.000000	 85.496172 
894.000000	 85.868577 
893.000000	 86.213615 
892.000000	 86.537958 
891.000000	 86.859521 
890.000000	 87.179884 
889.000000	 87.481717 
888.000000	 87.757309 
887.000000	 88.020536 
886.000000	 88.285303 
885.000000	 88.550241 
884.000000	 88.811219 
883.000000	 89.071711 
882.000000	 89.333493 
881.000000	 89.592473 
880.000000	 89.850078 
879.000000	 90.114299 
878.000000	 90.384933 
877.000000	 90.653104 
876.000000	 90.918595 
875.000000	 91.191030 
874.000000	 91.471710 
873.000000	 91.752850 
872.000000	 92.037445 
871.000000	 92.339822 
870.000000	 92.661694 
869.000000	 92.985925 
868.000000	 93.298438 
867.000000	 93.598992 
866.000000	 93.887204 
865.000000	 94.156589 
864.000000	 94.408671 
863.000000	 94.656554 
862.000000	 94.906840 
861.000000	 95.151611 
860.000000	 95.385022 
859.000000	 95.614096 
858.000000	 95.845985 
857.000000	 96.076838 
856.000000	 96.299441 
855.000000	 96.509403 
854.000000	 96.698147 
853.000000	 96.854007 
852.000000	 96.978999 
851.000000	 97.092812 
850.000000	 97.211005 
849.000000	 97.328389 
848.000000	 97.430437 
847.000000	 97.509387 
846.000000	 97.561972 
845.000000	 97.584722 
844.000000	 97.582367 
843.000000	 97.569661 
842.000000	 97.552091 
841.000000	 97.512767 
840.000000	 97.430472 
839.000000	 97.305019 
838.000000	 97.156218 
837.000000	 97.005358 
836.000000	 96.866974 
835.000000	 96.748962 
834.000000	 96.647000 
833.000000	 96.545641 
832.000000	 96.439162 
831.000000	 96.347750 
830.000000	 96.300601 
829.000000	 96.305054 
828.000000	 96.342914 
827.000000	 96.394030 
826.000000	 96.452314 
825.000000	 96.520123 
824.000000	 96.597856 
823.000000	 96.680500 
822.000000	 96.757193 
821.000000	 96.813392 
820.000000	 96.837946 
819.000000	 96.828387 
818.000000	 96.788133 
817.000000	 96.720086 
816.000000	 96.623032 
815.000000	 96.490557 
814.000000	 96.311054 
813.000000	 96.070220 
812.000000	 95.753696 
811.000000	 95.345522 
810.000000	 94.827773 
809.000000	 94.189561 
808.000000	 93.437997 
807.000000	 92.595140 
806.000000	 91.684180 
805.000000	 90.726915 
804.000000	 89.755009 
803.000000	 88.810225 
802.000000	 87.929023 
801.000000	 87.140263 
800.000000	 86.479848 
799.000000	 85.986285 
798.000000	 85.673882 
797.000000	 85.528542 
796.000000	 85.532856 
795.000000	 85.671104 
794.000000	 85.905532 
793.000000	 86.177177 
792.000000	 86.443367 
791.000000	 86.694537 
790.000000	 86.926047 
789.000000	 87.113498 
788.000000	 87.224421 
787.000000	 87.236481 
786.000000	 87.136712 
785.000000	 86.921374 
784.000000	 86.608460 
783.000000	 86.237747 
782.000000	 85.849707 
781.000000	 85.475740 
780.000000	 85.152258 
779.000000	 84.923676 
778.000000	 84.820108 
777.000000	 84.846239 
776.000000	 84.995957 
775.000000	 85.257511 
774.000000	 85.599323 
773.000000	 85.974925 
772.000000	 86.353536 
771.000000	 86.729581 
770.000000	 87.096855 
769.000000	 87.433539 
768.000000	 87.721377 
767.000000	 87.961383 
766.000000	 88.161091 
765.000000	 88.322829 
764.000000	 88.455060 
763.000000	 88.579500 
762.000000	 88.713201 
761.000000	 88.853177 
760.000000	 88.988174 
759.000000	 89.115700 
758.000000	 89.240053 
757.000000	 89.364657 
756.000000	 89.494090 
755.000000	 89.633059 
754.000000	 89.776221 
753.000000	 89.909869 
752.000000	 90.031041 
751.000000	 90.155107 
750.000000	 90.297857 
749.000000	 90.459527 
748.000000	 90.632767 
747.000000	 90.816930 
746.000000	 91.016856 
745.000000	 91.234326 
744.000000	 91.467402 
743.000000	 91.714186 
742.000000	 91.973916 
741.000000	 92.246856 
740.000000	 92.531003 
739.000000	 92.814137 
738.000000	 93.075190 
737.000000	 93.303885 
736.000000	 93.514414 
735.000000	 93.728140 
734.000000	 93.947230 
733.000000	 94.156537 
732.000000	 94.344431 
731.000000	 94.506772 
730.000000	 94.636762 
729.000000	 94.730774 
728.000000	 94.804180 
727.000000	 94.882128 
726.000000	 94.970952 
725.000000	 95.055896 
724.000000	 95.130583 
723.000000	 95.211606 
722.000000	 95.318606 
721.000000	 95.454178 
720.000000	 95.607743 
719.000000	 95.765048 
718.000000	 95.909953 
717.000000	 96.032417 
716.000000	 96.140926 
715.000000	 96.254264 
714.000000	 96.374798 
713.000000	 96.480961 
712.000000	 96.550241 
711.000000	 96.576662 
710.000000	 96.563408 
709.000000	 96.516105 
708.000000	 96.451723 
707.000000	 96.396693 
706.000000	 96.359647 
705.000000	 96.314184 
704.000000	 96.219058 
703.000000	 96.047262 
702.000000	 95.788873 
701.000000	 95.437359 
700.000000	 94.986351 
699.000000	 94.439858 
698.000000	 93.826127 
697.000000	 93.212739 
696.000000	 92.705443 
695.000000	 92.406055 
694.000000	 92.355605 
693.000000	 92.519121 
692.000000	 92.820672 
691.000000	 93.187058 
690.000000	 93.566351 
689.000000	 93.927395 
688.000000	 94.254477 
687.000000	 94.538504 
686.000000	 94.774070 
685.000000	 94.970870 
684.000000	 95.158644 
683.000000	 95.361952 
682.000000	 95.569433 
681.000000	 95.745534 
680.000000	 95.876985 
679.000000	 95.991955 
678.000000	 96.126333 
677.000000	 96.285937 
676.000000	 96.451822 
675.000000	 96.611766 
674.000000	 96.767637 
673.000000	 96.924786 
672.000000	 97.092453 
671.000000	 97.285221 
670.000000	 97.505994 
669.000000	 97.721578 
668.000000	 97.870652 
667.000000	 97.930589 
666.000000	 97.947505 
665.000000	 97.975266 
664.000000	 98.031725 
663.000000	 98.116491 
662.000000	 98.226589 
661.000000	 98.354638 
660.000000	 98.489089 
659.000000	 98.612545 
658.000000	 98.698889 
657.000000	 98.728672 
656.000000	 98.714580 
655.000000	 98.699074 
654.000000	 98.707423 
653.000000	 98.719322 
652.000000	 98.709011 
651.000000	 98.691206 
650.000000	 98.700157 

