PE IR                   SPECTRUM    ASCII       PEDS        1.60        
  -1
~SP.SP
22/12/06
12:25:48.00
23/01/09
14:39:38.00
Administrator

650.000000
4









FRONTIER FT-IR,CPU32 MAIN 00.09.9951 07-SEPTEMBER-2011 11:49:41
MIR TGS
MIR
OPTKBR
90694
0.200000

4.000000
STRONG
RATIO
SPECTRUM
MAGNITUDE
MIRACLE ATR
DOUBLE

COMBINED


0


#HDR
-1
-1
#GR
CM-1
%T
0.00002384185791015625
0.0
4000.000000
-1.000000
3351
8
84.238478
54.080652
#DATA
4000.000000	84.221181 
3999.000000	84.218931 
3998.000000	84.216388 
3997.000000	84.214996 
3996.000000	84.215717 
3995.000000	84.218403 
3994.000000	84.221265 
3993.000000	84.222362 
3992.000000	84.221329 
3991.000000	84.219395 
3990.000000	84.218380 
3989.000000	84.219133 
3988.000000	84.221107 
3987.000000	84.223157 
3986.000000	84.224490 
3985.000000	84.224866 
3984.000000	84.224200 
3983.000000	84.222451 
3982.000000	84.219887 
3981.000000	84.217072 
3980.000000	84.214605 
3979.000000	84.212915 
3978.000000	84.212152 
3977.000000	84.212067 
3976.000000	84.211995 
3975.000000	84.211296 
3974.000000	84.210042 
3973.000000	84.209109 
3972.000000	84.209351 
3971.000000	84.210753 
3970.000000	84.212524 
3969.000000	84.213838 
3968.000000	84.214372 
3967.000000	84.214249 
3966.000000	84.213734 
3965.000000	84.213018 
3964.000000	84.212229 
3963.000000	84.211475 
3962.000000	84.210825 
3961.000000	84.210296 
3960.000000	84.209878 
3959.000000	84.209554 
3958.000000	84.209309 
3957.000000	84.209042 
3956.000000	84.208522 
3955.000000	84.207543 
3954.000000	84.206135 
3953.000000	84.204652 
3952.000000	84.203589 
3951.000000	84.203221 
3950.000000	84.203440 
3949.000000	84.203750 
3948.000000	84.203577 
3947.000000	84.202714 
3946.000000	84.201403 
3945.000000	84.200176 
3944.000000	84.199414 
3943.000000	84.199099 
3942.000000	84.198864 
3941.000000	84.198337 
3940.000000	84.197470 
3939.000000	84.196492 
3938.000000	84.195595 
3937.000000	84.194795 
3936.000000	84.194048 
3935.000000	84.193422 
3934.000000	84.193080 
3933.000000	84.193086 
3932.000000	84.193271 
3931.000000	84.193307 
3930.000000	84.192950 
3929.000000	84.192150 
3928.000000	84.191015 
3927.000000	84.189735 
3926.000000	84.188500 
3925.000000	84.187452 
3924.000000	84.186609 
3923.000000	84.185811 
3922.000000	84.184893 
3921.000000	84.183863 
3920.000000	84.182875 
3919.000000	84.182051 
3918.000000	84.181402 
3917.000000	84.180825 
3916.000000	84.180177 
3915.000000	84.179338 
3914.000000	84.178295 
3913.000000	84.177116 
3912.000000	84.175869 
3911.000000	84.174564 
3910.000000	84.173197 
3909.000000	84.171805 
3908.000000	84.170437 
3907.000000	84.169109 
3906.000000	84.167808 
3905.000000	84.166515 
3904.000000	84.165216 
3903.000000	84.163900 
3902.000000	84.162562 
3901.000000	84.161209 
3900.000000	84.159855 
3899.000000	84.158503 
3898.000000	84.157150 
3897.000000	84.155795 
3896.000000	84.154443 
3895.000000	84.153104 
3894.000000	84.151783 
3893.000000	84.150470 
3892.000000	84.149148 
3891.000000	84.147803 
3890.000000	84.146440 
3889.000000	84.145078 
3888.000000	84.143749 
3887.000000	84.142480 
3886.000000	84.141286 
3885.000000	84.140164 
3884.000000	84.139107 
3883.000000	84.138113 
3882.000000	84.137191 
3881.000000	84.136337 
3880.000000	84.135528 
3879.000000	84.134728 
3878.000000	84.133914 
3877.000000	84.133092 
3876.000000	84.132287 
3875.000000	84.131518 
3874.000000	84.130790 
3873.000000	84.130107 
3872.000000	84.129478 
3871.000000	84.128927 
3870.000000	84.128468 
3869.000000	84.128106 
3868.000000	84.127828 
3867.000000	84.127619 
3866.000000	84.127471 
3865.000000	84.127380 
3864.000000	84.127343 
3863.000000	84.127339 
3862.000000	84.127344 
3861.000000	84.127369 
3860.000000	84.127458 
3859.000000	84.127650 
3858.000000	84.127959 
3857.000000	84.128367 
3856.000000	84.128799 
3855.000000	84.129136 
3854.000000	84.129319 
3853.000000	84.129429 
3852.000000	84.129529 
3851.000000	84.129615 
3850.000000	84.129781 
3849.000000	84.130119 
3848.000000	84.130628 
3847.000000	84.131221 
3846.000000	84.131783 
3845.000000	84.132266 
3844.000000	84.132682 
3843.000000	84.133057 
3842.000000	84.133411 
3841.000000	84.133734 
3840.000000	84.133998 
3839.000000	84.134203 
3838.000000	84.134406 
3837.000000	84.134630 
3836.000000	84.134807 
3835.000000	84.134871 
3834.000000	84.134877 
3833.000000	84.134932 
3832.000000	84.135080 
3831.000000	84.135218 
3830.000000	84.135143 
3829.000000	84.134788 
3828.000000	84.134324 
3827.000000	84.133923 
3826.000000	84.133528 
3825.000000	84.132927 
3824.000000	84.132032 
3823.000000	84.131072 
3822.000000	84.130489 
3821.000000	84.130475 
3820.000000	84.130525 
3819.000000	84.129926 
3818.000000	84.128693 
3817.000000	84.127505 
3816.000000	84.126897 
3815.000000	84.126720 
3814.000000	84.126368 
3813.000000	84.125625 
3812.000000	84.124948 
3811.000000	84.124777 
3810.000000	84.124902 
3809.000000	84.124706 
3808.000000	84.123945 
3807.000000	84.122931 
3806.000000	84.121766 
3805.000000	84.120027 
3804.000000	84.117618 
3803.000000	84.115133 
3802.000000	84.113113 
3801.000000	84.111335 
3800.000000	84.109061 
3799.000000	84.106518 
3798.000000	84.105407 
3797.000000	84.106758 
3796.000000	84.109541 
3795.000000	84.111426 
3794.000000	84.111048 
3793.000000	84.108772 
3792.000000	84.105881 
3791.000000	84.103366 
3790.000000	84.101377 
3789.000000	84.099742 
3788.000000	84.098579 
3787.000000	84.098289 
3786.000000	84.099065 
3785.000000	84.100512 
3784.000000	84.101809 
3783.000000	84.102468 
3782.000000	84.102927 
3781.000000	84.104246 
3780.000000	84.106791 
3779.000000	84.109056 
3778.000000	84.108652 
3777.000000	84.105145 
3776.000000	84.100528 
3775.000000	84.096938 
3774.000000	84.094925 
3773.000000	84.093858 
3772.000000	84.093520 
3771.000000	84.094943 
3770.000000	84.098762 
3769.000000	84.102655 
3768.000000	84.103336 
3767.000000	84.101358 
3766.000000	84.100225 
3765.000000	84.100908 
3764.000000	84.100325 
3763.000000	84.095378 
3762.000000	84.087052 
3761.000000	84.079658 
3760.000000	84.076716 
3759.000000	84.077800 
3758.000000	84.079452 
3757.000000	84.079935 
3756.000000	84.080653 
3755.000000	84.081987 
3754.000000	84.081642 
3753.000000	84.077685 
3752.000000	84.072342 
3751.000000	84.070768 
3750.000000	84.072845 
3749.000000	84.072161 
3748.000000	84.066661 
3747.000000	84.060022 
3746.000000	84.054575 
3745.000000	84.051167 
3744.000000	84.048916 
3743.000000	84.040342 
3742.000000	84.022313 
3741.000000	84.005698 
3740.000000	83.999632 
3739.000000	83.999460 
3738.000000	83.993361 
3737.000000	83.979475 
3736.000000	83.973709 
3735.000000	83.990770 
3734.000000	84.022093 
3733.000000	84.044402 
3732.000000	84.044046 
3731.000000	84.022418 
3730.000000	83.986663 
3729.000000	83.944332 
3728.000000	83.904159 
3727.000000	83.875476 
3726.000000	83.862509 
3725.000000	83.860046 
3724.000000	83.859059 
3723.000000	83.855701 
3722.000000	83.851161 
3721.000000	83.845731 
3720.000000	83.837490 
3719.000000	83.824415 
3718.000000	83.804788 
3717.000000	83.778788 
3716.000000	83.749476 
3715.000000	83.718806 
3714.000000	83.684824 
3713.000000	83.644140 
3712.000000	83.598505 
3711.000000	83.554422 
3710.000000	83.514243 
3709.000000	83.475400 
3708.000000	83.436593 
3707.000000	83.399355 
3706.000000	83.364464 
3705.000000	83.328790 
3704.000000	83.287105 
3703.000000	83.237027 
3702.000000	83.181106 
3701.000000	83.123214 
3700.000000	83.064308 
3699.000000	83.005391 
3698.000000	82.949614 
3697.000000	82.899386 
3696.000000	82.854620 
3695.000000	82.813914 
3694.000000	82.778740 
3693.000000	82.754564 
3692.000000	82.744823 
3691.000000	82.743734 
3690.000000	82.737706 
3689.000000	82.715801 
3688.000000	82.678073 
3687.000000	82.634302 
3686.000000	82.596683 
3685.000000	82.572371 
3684.000000	82.560982 
3683.000000	82.556583 
3682.000000	82.550304 
3681.000000	82.533703 
3680.000000	82.501458 
3679.000000	82.452128 
3678.000000	82.388732 
3677.000000	82.322463 
3676.000000	82.273932 
3675.000000	82.253828 
3674.000000	82.245598 
3673.000000	82.229316 
3672.000000	82.204327 
3671.000000	82.177958 
3670.000000	82.153789 
3669.000000	82.130122 
3668.000000	82.102880 
3667.000000	82.073269 
3666.000000	82.045805 
3665.000000	82.020132 
3664.000000	81.993379 
3663.000000	81.966533 
3662.000000	81.943968 
3661.000000	81.927798 
3660.000000	81.915723 
3659.000000	81.904903 
3658.000000	81.896557 
3657.000000	81.894328 
3656.000000	81.897794 
3655.000000	81.900433 
3654.000000	81.898033 
3653.000000	81.893832 
3652.000000	81.890638 
3651.000000	81.884301 
3650.000000	81.869859 
3649.000000	81.852550 
3648.000000	81.842800 
3647.000000	81.843146 
3646.000000	81.847796 
3645.000000	81.851363 
3644.000000	81.853849 
3643.000000	81.857528 
3642.000000	81.861875 
3641.000000	81.863692 
3640.000000	81.861420 
3639.000000	81.857308 
3638.000000	81.854233 
3637.000000	81.851424 
3636.000000	81.846404 
3635.000000	81.839816 
3634.000000	81.835805 
3633.000000	81.836838 
3632.000000	81.839786 
3631.000000	81.838090 
3630.000000	81.827531 
3629.000000	81.810819 
3628.000000	81.791455 
3627.000000	81.769223 
3626.000000	81.752104 
3625.000000	81.752185 
3624.000000	81.770725 
3623.000000	81.799012 
3622.000000	81.827592 
3621.000000	81.851813 
3620.000000	81.871193 
3619.000000	81.885553 
3618.000000	81.893156 
3617.000000	81.895508 
3616.000000	81.899854 
3615.000000	81.912428 
3614.000000	81.933317 
3613.000000	81.957910 
3612.000000	81.980628 
3611.000000	81.998380 
3610.000000	82.012143 
3609.000000	82.026032 
3608.000000	82.043577 
3607.000000	82.064052 
3606.000000	82.084238 
3605.000000	82.102846 
3604.000000	82.120657 
3603.000000	82.138064 
3602.000000	82.154742 
3601.000000	82.170952 
3600.000000	82.187080 
3599.000000	82.201399 
3598.000000	82.210297 
3597.000000	82.212544 
3596.000000	82.211709 
3595.000000	82.213130 
3594.000000	82.219487 
3593.000000	82.228929 
3592.000000	82.238796 
3591.000000	82.249776 
3590.000000	82.264297 
3589.000000	82.282813 
3588.000000	82.302124 
3587.000000	82.315897 
3586.000000	82.318827 
3585.000000	82.312637 
3584.000000	82.305430 
3583.000000	82.303760 
3582.000000	82.307825 
3581.000000	82.313770 
3580.000000	82.318295 
3579.000000	82.320927 
3578.000000	82.323524 
3577.000000	82.327760 
3576.000000	82.332887 
3575.000000	82.335831 
3574.000000	82.334050 
3573.000000	82.328070 
3572.000000	82.320516 
3571.000000	82.313462 
3570.000000	82.307075 
3569.000000	82.301153 
3568.000000	82.297966 
3567.000000	82.300556 
3566.000000	82.307635 
3565.000000	82.314891 
3564.000000	82.321291 
3563.000000	82.328241 
3562.000000	82.335250 
3561.000000	82.340019 
3560.000000	82.341848 
3559.000000	82.342650 
3558.000000	82.344483 
3557.000000	82.347022 
3556.000000	82.348224 
3555.000000	82.346973 
3554.000000	82.344401 
3553.000000	82.342463 
3552.000000	82.341349 
3551.000000	82.339250 
3550.000000	82.335271 
3549.000000	82.331159 
3548.000000	82.329645 
3547.000000	82.331807 
3546.000000	82.336643 
3545.000000	82.342702 
3544.000000	82.349157 
3543.000000	82.355095 
3542.000000	82.358844 
3541.000000	82.358924 
3540.000000	82.355469 
3539.000000	82.350606 
3538.000000	82.347060 
3537.000000	82.346433 
3536.000000	82.348289 
3535.000000	82.350618 
3534.000000	82.351492 
3533.000000	82.350276 
3532.000000	82.347582 
3531.000000	82.344236 
3530.000000	82.340881 
3529.000000	82.338183 
3528.000000	82.336588 
3527.000000	82.335628 
3526.000000	82.334139 
3525.000000	82.331533 
3524.000000	82.328357 
3523.000000	82.325322 
3522.000000	82.322477 
3521.000000	82.319884 
3520.000000	82.318192 
3519.000000	82.317814 
3518.000000	82.318028 
3517.000000	82.317787 
3516.000000	82.317009 
3515.000000	82.316138 
3514.000000	82.314625 
3513.000000	82.310779 
3512.000000	82.303611 
3511.000000	82.294397 
3510.000000	82.286075 
3509.000000	82.280846 
3508.000000	82.278344 
3507.000000	82.275955 
3506.000000	82.270922 
3505.000000	82.262538 
3504.000000	82.252855 
3503.000000	82.244920 
3502.000000	82.239944 
3501.000000	82.236715 
3500.000000	82.233456 
3499.000000	82.229598 
3498.000000	82.225748 
3497.000000	82.222701 
3496.000000	82.220575 
3495.000000	82.218483 
3494.000000	82.215025 
3493.000000	82.209590 
3492.000000	82.203195 
3491.000000	82.197769 
3490.000000	82.194347 
3489.000000	82.192164 
3488.000000	82.189516 
3487.000000	82.185377 
3486.000000	82.179924 
3485.000000	82.173869 
3484.000000	82.167759 
3483.000000	82.161853 
3482.000000	82.156292 
3481.000000	82.151103 
3480.000000	82.146141 
3479.000000	82.141165 
3478.000000	82.135996 
3477.000000	82.130607 
3476.000000	82.125138 
3475.000000	82.119806 
3474.000000	82.114723 
3473.000000	82.109805 
3472.000000	82.104850 
3471.000000	82.099708 
3470.000000	82.094376 
3469.000000	82.088958 
3468.000000	82.083627 
3467.000000	82.078533 
3466.000000	82.073720 
3465.000000	82.069083 
3464.000000	82.064410 
3463.000000	82.059514 
3462.000000	82.054342 
3461.000000	82.049002 
3460.000000	82.043653 
3459.000000	82.038377 
3458.000000	82.033167 
3457.000000	82.028009 
3456.000000	82.022924 
3455.000000	82.017948 
3454.000000	82.013088 
3453.000000	82.008306 
3452.000000	82.003514 
3451.000000	81.998557 
3450.000000	81.993271 
3449.000000	81.987638 
3448.000000	81.981901 
3447.000000	81.976458 
3446.000000	81.971551 
3445.000000	81.967067 
3444.000000	81.962596 
3443.000000	81.957608 
3442.000000	81.951736 
3441.000000	81.945218 
3440.000000	81.938993 
3439.000000	81.933892 
3438.000000	81.929585 
3437.000000	81.924647 
3436.000000	81.918174 
3435.000000	81.911083 
3434.000000	81.905385 
3433.000000	81.902218 
3432.000000	81.901029 
3431.000000	81.900213 
3430.000000	81.898333 
3429.000000	81.894725 
3428.000000	81.889402 
3427.000000	81.882967 
3426.000000	81.876463 
3425.000000	81.870933 
3424.000000	81.866886 
3423.000000	81.864111 
3422.000000	81.861964 
3421.000000	81.859881 
3420.000000	81.857700 
3419.000000	81.855572 
3418.000000	81.853536 
3417.000000	81.851155 
3416.000000	81.847713 
3415.000000	81.842821 
3414.000000	81.836830 
3413.000000	81.830671 
3412.000000	81.825363 
3411.000000	81.821525 
3410.000000	81.819045 
3409.000000	81.817121 
3408.000000	81.814972 
3407.000000	81.812715 
3406.000000	81.811322 
3405.000000	81.811397 
3404.000000	81.812043 
3403.000000	81.811228 
3402.000000	81.807591 
3401.000000	81.802028 
3400.000000	81.797512 
3399.000000	81.796968 
3398.000000	81.800949 
3397.000000	81.806959 
3396.000000	81.811140 
3395.000000	81.811312 
3394.000000	81.808284 
3393.000000	81.804578 
3392.000000	81.802197 
3391.000000	81.801585 
3390.000000	81.802122 
3389.000000	81.802840 
3388.000000	81.802863 
3387.000000	81.801942 
3386.000000	81.800893 
3385.000000	81.801026 
3384.000000	81.802785 
3383.000000	81.805258 
3382.000000	81.807271 
3381.000000	81.808673 
3380.000000	81.810149 
3379.000000	81.812024 
3378.000000	81.813770 
3377.000000	81.814796 
3376.000000	81.815395 
3375.000000	81.816700 
3374.000000	81.819825 
3373.000000	81.825134 
3372.000000	81.832039 
3371.000000	81.839195 
3370.000000	81.844970 
3369.000000	81.848111 
3368.000000	81.848408 
3367.000000	81.846966 
3366.000000	81.845731 
3365.000000	81.846404 
3364.000000	81.849592 
3363.000000	81.854858 
3362.000000	81.861299 
3361.000000	81.867942 
3360.000000	81.873861 
3359.000000	81.878401 
3358.000000	81.881610 
3357.000000	81.884325 
3356.000000	81.887527 
3355.000000	81.891390 
3354.000000	81.895102 
3353.000000	81.897840 
3352.000000	81.899852 
3351.000000	81.902363 
3350.000000	81.906256 
3349.000000	81.911153 
3348.000000	81.915833 
3347.000000	81.919546 
3346.000000	81.922706 
3345.000000	81.926303 
3344.000000	81.930889 
3343.000000	81.936212 
3342.000000	81.941575 
3341.000000	81.946375 
3340.000000	81.950366 
3339.000000	81.953712 
3338.000000	81.956907 
3337.000000	81.960489 
3336.000000	81.964631 
3335.000000	81.968954 
3334.000000	81.972811 
3333.000000	81.975829 
3332.000000	81.978205 
3331.000000	81.980592 
3330.000000	81.983625 
3329.000000	81.987442 
3328.000000	81.991595 
3327.000000	81.995370 
3326.000000	81.998349 
3325.000000	82.000683 
3324.000000	82.002943 
3323.000000	82.005702 
3322.000000	82.009186 
3321.000000	82.013200 
3320.000000	82.017220 
3319.000000	82.020713 
3318.000000	82.023525 
3317.000000	82.025942 
3316.000000	82.028375 
3315.000000	82.030955 
3314.000000	82.033481 
3313.000000	82.035704 
3312.000000	82.037572 
3311.000000	82.039313 
3310.000000	82.041382 
3309.000000	82.044198 
3308.000000	82.047788 
3307.000000	82.051669 
3306.000000	82.055227 
3305.000000	82.058316 
3304.000000	82.061286 
3303.000000	82.064428 
3302.000000	82.067513 
3301.000000	82.070053 
3300.000000	82.071937 
3299.000000	82.073560 
3298.000000	82.075382 
3297.000000	82.077542 
3296.000000	82.079957 
3295.000000	82.082563 
3294.000000	82.085279 
3293.000000	82.087865 
3292.000000	82.090040 
3291.000000	82.091788 
3290.000000	82.093470 
3289.000000	82.095538 
3288.000000	82.098131 
3287.000000	82.100955 
3286.000000	82.103482 
3285.000000	82.105392 
3284.000000	82.106728 
3283.000000	82.107821 
3282.000000	82.109097 
3281.000000	82.110809 
3280.000000	82.112928 
3279.000000	82.115183 
3278.000000	82.117273 
3277.000000	82.119119 
3276.000000	82.120875 
3275.000000	82.122753 
3274.000000	82.124853 
3273.000000	82.127129 
3272.000000	82.129461 
3271.000000	82.131721 
3270.000000	82.133788 
3269.000000	82.135614 
3268.000000	82.137310 
3267.000000	82.139085 
3266.000000	82.141054 
3265.000000	82.143118 
3264.000000	82.145100 
3263.000000	82.146921 
3262.000000	82.148614 
3261.000000	82.150182 
3260.000000	82.151515 
3259.000000	82.152485 
3258.000000	82.153080 
3257.000000	82.153544 
3256.000000	82.154434 
3255.000000	82.156365 
3254.000000	82.159442 
3253.000000	82.162943 
3252.000000	82.165795 
3251.000000	82.167460 
3250.000000	82.168186 
3249.000000	82.168590 
3248.000000	82.169299 
3247.000000	82.170923 
3246.000000	82.173773 
3245.000000	82.177211 
3244.000000	82.179820 
3243.000000	82.180823 
3242.000000	82.181094 
3241.000000	82.182174 
3240.000000	82.184256 
3239.000000	82.185923 
3238.000000	82.186013 
3237.000000	82.185229 
3236.000000	82.185485 
3235.000000	82.187983 
3234.000000	82.192227 
3233.000000	82.196631 
3232.000000	82.199843 
3231.000000	82.201599 
3230.000000	82.202758 
3229.000000	82.204659 
3228.000000	82.208303 
3227.000000	82.213901 
3226.000000	82.220809 
3225.000000	82.227618 
3224.000000	82.232653 
3223.000000	82.235084 
3222.000000	82.235873 
3221.000000	82.237319 
3220.000000	82.241047 
3219.000000	82.246544 
3218.000000	82.251925 
3217.000000	82.255991 
3216.000000	82.259169 
3215.000000	82.262552 
3214.000000	82.266662 
3213.000000	82.271397 
3212.000000	82.276591 
3211.000000	82.282111 
3210.000000	82.287628 
3209.000000	82.292788 
3208.000000	82.297662 
3207.000000	82.302642 
3206.000000	82.307823 
3205.000000	82.312778 
3204.000000	82.317087 
3203.000000	82.320880 
3202.000000	82.324772 
3201.000000	82.329433 
3200.000000	82.335298 
3199.000000	82.342413 
3198.000000	82.350269 
3197.000000	82.357849 
3196.000000	82.364287 
3195.000000	82.369585 
3194.000000	82.374555 
3193.000000	82.380054 
3192.000000	82.386262 
3191.000000	82.392708 
3190.000000	82.398816 
3189.000000	82.404396 
3188.000000	82.409680 
3187.000000	82.415032 
3186.000000	82.420637 
3185.000000	82.426468 
3184.000000	82.432407 
3183.000000	82.438345 
3182.000000	82.444208 
3181.000000	82.449994 
3180.000000	82.455788 
3179.000000	82.461701 
3178.000000	82.467747 
3177.000000	82.473845 
3176.000000	82.479901 
3175.000000	82.485900 
3174.000000	82.491880 
3173.000000	82.497860 
3172.000000	82.503831 
3171.000000	82.509786 
3170.000000	82.515723 
3169.000000	82.521639 
3168.000000	82.527539 
3167.000000	82.533434 
3166.000000	82.539331 
3165.000000	82.545231 
3164.000000	82.551127 
3163.000000	82.557010 
3162.000000	82.562874 
3161.000000	82.568714 
3160.000000	82.574531 
3159.000000	82.580324 
3158.000000	82.586095 
3157.000000	82.591839 
3156.000000	82.597555 
3155.000000	82.603244 
3154.000000	82.608912 
3153.000000	82.614565 
3152.000000	82.620205 
3151.000000	82.625829 
3150.000000	82.631434 
3149.000000	82.637019 
3148.000000	82.642590 
3147.000000	82.648152 
3146.000000	82.653705 
3145.000000	82.659246 
3144.000000	82.664767 
3143.000000	82.670259 
3142.000000	82.675715 
3141.000000	82.681135 
3140.000000	82.686525 
3139.000000	82.691893 
3138.000000	82.697243 
3137.000000	82.702570 
3136.000000	82.707863 
3135.000000	82.713111 
3134.000000	82.718315 
3133.000000	82.723483 
3132.000000	82.728631 
3131.000000	82.733769 
3130.000000	82.738894 
3129.000000	82.744000 
3128.000000	82.749084 
3127.000000	82.754146 
3126.000000	82.759195 
3125.000000	82.764231 
3124.000000	82.769251 
3123.000000	82.774247 
3122.000000	82.779218 
3121.000000	82.784166 
3120.000000	82.789100 
3119.000000	82.794028 
3118.000000	82.798956 
3117.000000	82.803881 
3116.000000	82.808801 
3115.000000	82.813708 
3114.000000	82.818597 
3113.000000	82.823451 
3112.000000	82.828252 
3111.000000	82.833043 
3110.000000	82.838083 
3109.000000	82.843763 
3108.000000	82.849997 
3107.000000	82.855842 
3106.000000	82.860294 
3105.000000	82.863623 
3104.000000	82.867511 
3103.000000	82.873483 
3102.000000	82.881281 
3101.000000	82.888934 
3100.000000	82.894567 
3099.000000	82.898039 
3098.000000	82.900629 
3097.000000	82.903134 
3096.000000	82.904765 
3095.000000	82.904508 
3094.000000	82.903391 
3093.000000	82.904504 
3092.000000	82.910126 
3091.000000	82.919066 
3090.000000	82.927573 
3089.000000	82.933060 
3088.000000	82.936456 
3087.000000	82.940619 
3086.000000	82.946896 
3085.000000	82.953899 
3084.000000	82.959641 
3083.000000	82.964063 
3082.000000	82.968780 
3081.000000	82.974659 
3080.000000	82.980564 
3079.000000	82.984944 
3078.000000	82.988083 
3077.000000	82.992016 
3076.000000	82.998202 
3075.000000	83.005849 
3074.000000	83.012728 
3073.000000	83.017315 
3072.000000	83.020057 
3071.000000	83.022713 
3070.000000	83.026541 
3069.000000	83.030891 
3068.000000	83.033446 
3067.000000	83.032204 
3066.000000	83.027559 
3065.000000	83.022479 
3064.000000	83.020506 
3063.000000	83.023406 
3062.000000	83.030343 
3061.000000	83.038660 
3060.000000	83.045329 
3059.000000	83.048418 
3058.000000	83.048069 
3057.000000	83.046284 
3056.000000	83.045117 
3055.000000	83.044277 
3054.000000	83.040540 
3053.000000	83.030261 
3052.000000	83.013372 
3051.000000	82.994951 
3050.000000	82.981863 
3049.000000	82.976928 
3048.000000	82.976384 
3047.000000	82.973628 
3046.000000	82.965150 
3045.000000	82.952384 
3044.000000	82.938564 
3043.000000	82.925185 
3042.000000	82.911774 
3041.000000	82.897461 
3040.000000	82.881207 
3039.000000	82.861108 
3038.000000	82.835211 
3037.000000	82.803527 
3036.000000	82.768151 
3035.000000	82.731296 
3034.000000	82.693848 
3033.000000	82.655352 
3032.000000	82.615312 
3031.000000	82.573757 
3030.000000	82.529532 
3029.000000	82.479834 
3028.000000	82.423227 
3027.000000	82.361978 
3026.000000	82.300199 
3025.000000	82.240248 
3024.000000	82.181793 
3023.000000	82.123660 
3022.000000	82.065011 
3021.000000	82.004532 
3020.000000	81.939976 
3019.000000	81.869665 
3018.000000	81.794116 
3017.000000	81.715735 
3016.000000	81.636980 
3015.000000	81.558771 
3014.000000	81.479925 
3013.000000	81.397904 
3012.000000	81.310955 
3011.000000	81.220177 
3010.000000	81.128872 
3009.000000	81.039171 
3008.000000	80.949714 
3007.000000	80.857389 
3006.000000	80.761328 
3005.000000	80.664630 
3004.000000	80.571873 
3003.000000	80.484949 
3002.000000	80.401480 
3001.000000	80.317451 
3000.000000	80.231396 
2999.000000	80.145980 
2998.000000	80.066333 
2997.000000	79.997714 
2996.000000	79.942638 
2995.000000	79.894682 
2994.000000	79.832509 
2993.000000	79.726934 
2992.000000	79.565293 
2991.000000	79.372425 
2990.000000	79.200950 
2989.000000	79.094418 
2988.000000	79.060703 
2987.000000	79.078766 
2986.000000	79.122295 
2985.000000	79.172038 
2984.000000	79.212387 
2983.000000	79.230608 
2982.000000	79.224603 
2981.000000	79.205147 
2980.000000	79.185718 
2979.000000	79.172246 
2978.000000	79.163731 
2977.000000	79.157798 
2976.000000	79.152549 
2975.000000	79.147282 
2974.000000	79.146352 
2973.000000	79.160621 
2972.000000	79.200668 
2971.000000	79.268305 
2970.000000	79.356822 
2969.000000	79.458721 
2968.000000	79.570582 
2967.000000	79.690638 
2966.000000	79.814359 
2965.000000	79.933961 
2964.000000	80.041714 
2963.000000	80.133519 
2962.000000	80.210138 
2961.000000	80.275610 
2960.000000	80.334832 
2959.000000	80.392530 
2958.000000	80.452898 
2957.000000	80.517372 
2956.000000	80.582044 
2955.000000	80.640016 
2954.000000	80.688520 
2953.000000	80.732329 
2952.000000	80.778122 
2951.000000	80.826425 
2950.000000	80.871086 
2949.000000	80.905870 
2948.000000	80.929033 
2947.000000	80.942110 
2946.000000	80.948060 
2945.000000	80.951826 
2944.000000	80.959954 
2943.000000	80.977572 
2942.000000	81.005555 
2941.000000	81.040605 
2940.000000	81.077761 
2939.000000	81.113050 
2938.000000	81.144849 
2937.000000	81.173916 
2936.000000	81.202461 
2935.000000	81.232632 
2934.000000	81.265025 
2933.000000	81.297976 
2932.000000	81.328478 
2931.000000	81.354645 
2930.000000	81.377511 
2929.000000	81.399577 
2928.000000	81.421153 
2927.000000	81.439121 
2926.000000	81.450252 
2925.000000	81.455249 
2924.000000	81.458616 
2923.000000	81.464845 
2922.000000	81.475170 
2921.000000	81.487027 
2920.000000	81.495207 
2919.000000	81.493204 
2918.000000	81.474239 
2917.000000	81.431887 
2916.000000	81.361344 
2915.000000	81.262517 
2914.000000	81.143559 
2913.000000	81.020634 
2912.000000	80.911449 
2911.000000	80.826453 
2910.000000	80.764435 
2909.000000	80.715784 
2908.000000	80.670537 
2907.000000	80.623878 
2906.000000	80.573650 
2905.000000	80.513940 
2904.000000	80.436584 
2903.000000	80.345147 
2902.000000	80.265911 
2901.000000	80.236127 
2900.000000	80.274772 
2899.000000	80.364127 
2898.000000	80.461993 
2897.000000	80.532682 
2896.000000	80.567263 
2895.000000	80.578492 
2894.000000	80.584172 
2893.000000	80.596015 
2892.000000	80.617528 
2891.000000	80.645570 
2890.000000	80.673100 
2889.000000	80.692989 
2888.000000	80.701389 
2887.000000	80.699611 
2886.000000	80.694808 
2885.000000	80.698675 
2884.000000	80.722443 
2883.000000	80.770206 
2882.000000	80.836617 
2881.000000	80.911604 
2880.000000	80.987278 
2879.000000	81.060638 
2878.000000	81.130949 
2877.000000	81.196407 
2876.000000	81.253928 
2875.000000	81.301896 
2874.000000	81.342665 
2873.000000	81.381647 
2872.000000	81.423388 
2871.000000	81.468532 
2870.000000	81.515027 
2869.000000	81.561769 
2868.000000	81.610337 
2867.000000	81.663653 
2866.000000	81.724027 
2865.000000	81.792255 
2864.000000	81.867292 
2863.000000	81.946676 
2862.000000	82.028434 
2861.000000	82.112717 
2860.000000	82.200404 
2859.000000	82.290034 
2858.000000	82.377608 
2857.000000	82.460225 
2856.000000	82.538431 
2855.000000	82.613629 
2854.000000	82.685101 
2853.000000	82.750909 
2852.000000	82.809773 
2851.000000	82.860353 
2850.000000	82.899481 
2849.000000	82.922606 
2848.000000	82.926675 
2847.000000	82.913091 
2846.000000	82.888822 
2845.000000	82.864467 
2844.000000	82.849151 
2843.000000	82.845500 
2842.000000	82.849366 
2841.000000	82.854784 
2840.000000	82.859065 
2839.000000	82.863510 
2838.000000	82.870721 
2837.000000	82.882097 
2836.000000	82.896796 
2835.000000	82.911780 
2834.000000	82.923400 
2833.000000	82.930219 
2832.000000	82.934416 
2831.000000	82.939723 
2830.000000	82.947847 
2829.000000	82.957212 
2828.000000	82.964787 
2827.000000	82.968906 
2826.000000	82.970961 
2825.000000	82.975100 
2824.000000	82.985642 
2823.000000	83.003469 
2822.000000	83.024662 
2821.000000	83.043234 
2820.000000	83.055448 
2819.000000	83.061425 
2818.000000	83.063443 
2817.000000	83.064027 
2816.000000	83.065655 
2815.000000	83.070611 
2814.000000	83.079571 
2813.000000	83.090435 
2812.000000	83.099694 
2811.000000	83.105603 
2810.000000	83.109742 
2809.000000	83.115088 
2808.000000	83.122743 
2807.000000	83.130960 
2806.000000	83.137173 
2805.000000	83.140382 
2804.000000	83.141624 
2803.000000	83.142916 
2802.000000	83.146136 
2801.000000	83.152166 
2800.000000	83.160195 
2799.000000	83.168080 
2798.000000	83.174050 
2797.000000	83.178008 
2796.000000	83.181091 
2795.000000	83.184282 
2794.000000	83.187751 
2793.000000	83.191293 
2792.000000	83.194950 
2791.000000	83.199144 
2790.000000	83.204377 
2789.000000	83.210765 
2788.000000	83.217639 
2787.000000	83.223719 
2786.000000	83.228135 
2785.000000	83.231293 
2784.000000	83.234591 
2783.000000	83.239027 
2782.000000	83.244182 
2781.000000	83.248779 
2780.000000	83.252083 
2779.000000	83.254489 
2778.000000	83.256933 
2777.000000	83.260032 
2776.000000	83.263748 
2775.000000	83.267658 
2774.000000	83.271387 
2773.000000	83.274901 
2772.000000	83.278470 
2771.000000	83.282345 
2770.000000	83.286438 
2769.000000	83.290337 
2768.000000	83.293684 
2767.000000	83.296542 
2766.000000	83.299365 
2765.000000	83.302605 
2764.000000	83.306286 
2763.000000	83.310043 
2762.000000	83.313493 
2761.000000	83.316585 
2760.000000	83.319563 
2759.000000	83.322694 
2758.000000	83.326033 
2757.000000	83.329486 
2756.000000	83.332966 
2755.000000	83.336421 
2754.000000	83.339767 
2753.000000	83.342913 
2752.000000	83.345864 
2751.000000	83.348775 
2750.000000	83.351828 
2749.000000	83.355059 
2748.000000	83.358353 
2747.000000	83.361609 
2746.000000	83.364844 
2745.000000	83.368081 
2744.000000	83.371247 
2743.000000	83.374287 
2742.000000	83.377347 
2741.000000	83.380692 
2740.000000	83.384402 
2739.000000	83.388227 
2738.000000	83.391880 
2737.000000	83.395353 
2736.000000	83.398814 
2735.000000	83.402254 
2734.000000	83.405469 
2733.000000	83.408452 
2732.000000	83.411505 
2731.000000	83.414847 
2730.000000	83.418389 
2729.000000	83.422009 
2728.000000	83.425776 
2727.000000	83.429695 
2726.000000	83.433391 
2725.000000	83.436384 
2724.000000	83.438634 
2723.000000	83.440596 
2722.000000	83.442843 
2721.000000	83.445790 
2720.000000	83.449517 
2719.000000	83.453548 
2718.000000	83.456982 
2717.000000	83.459296 
2716.000000	83.460948 
2715.000000	83.462984 
2714.000000	83.465932 
2713.000000	83.469395 
2712.000000	83.472655 
2711.000000	83.475375 
2710.000000	83.477712 
2709.000000	83.480051 
2708.000000	83.482695 
2707.000000	83.485596 
2706.000000	83.488376 
2705.000000	83.490857 
2704.000000	83.493481 
2703.000000	83.496877 
2702.000000	83.500966 
2701.000000	83.504834 
2700.000000	83.507601 
2699.000000	83.509144 
2698.000000	83.509964 
2697.000000	83.510695 
2696.000000	83.511767 
2695.000000	83.513221 
2694.000000	83.514674 
2693.000000	83.515839 
2692.000000	83.517356 
2691.000000	83.520668 
2690.000000	83.526476 
2689.000000	83.533299 
2688.000000	83.538242 
2687.000000	83.539675 
2686.000000	83.538635 
2685.000000	83.537583 
2684.000000	83.537695 
2683.000000	83.537964 
2682.000000	83.537069 
2681.000000	83.535274 
2680.000000	83.533972 
2679.000000	83.533829 
2678.000000	83.534220 
2677.000000	83.534391 
2676.000000	83.534570 
2675.000000	83.535585 
2674.000000	83.537745 
2673.000000	83.540530 
2672.000000	83.543231 
2671.000000	83.545620 
2670.000000	83.548033 
2669.000000	83.550868 
2668.000000	83.554020 
2667.000000	83.556897 
2666.000000	83.559008 
2665.000000	83.560381 
2664.000000	83.561360 
2663.000000	83.562226 
2662.000000	83.563181 
2661.000000	83.564427 
2660.000000	83.565935 
2659.000000	83.567329 
2658.000000	83.568372 
2657.000000	83.569427 
2656.000000	83.571012 
2655.000000	83.572949 
2654.000000	83.574389 
2653.000000	83.574771 
2652.000000	83.574378 
2651.000000	83.573959 
2650.000000	83.574037 
2649.000000	83.574684 
2648.000000	83.575701 
2647.000000	83.576774 
2646.000000	83.577637 
2645.000000	83.578251 
2644.000000	83.578781 
2643.000000	83.579394 
2642.000000	83.580117 
2641.000000	83.580870 
2640.000000	83.581578 
2639.000000	83.582236 
2638.000000	83.582882 
2637.000000	83.583526 
2636.000000	83.584168 
2635.000000	83.584814 
2634.000000	83.585457 
2633.000000	83.586084 
2632.000000	83.586682 
2631.000000	83.587251 
2630.000000	83.587797 
2629.000000	83.588327 
2628.000000	83.588850 
2627.000000	83.589372 
2626.000000	83.589896 
2625.000000	83.590415 
2624.000000	83.590920 
2623.000000	83.591403 
2622.000000	83.591864 
2621.000000	83.592306 
2620.000000	83.592734 
2619.000000	83.593150 
2618.000000	83.593554 
2617.000000	83.593944 
2616.000000	83.594322 
2615.000000	83.594694 
2614.000000	83.595071 
2613.000000	83.595463 
2612.000000	83.595881 
2611.000000	83.596326 
2610.000000	83.596794 
2609.000000	83.597283 
2608.000000	83.597789 
2607.000000	83.598313 
2606.000000	83.598852 
2605.000000	83.599397 
2604.000000	83.599940 
2603.000000	83.600475 
2602.000000	83.601001 
2601.000000	83.601521 
2600.000000	83.602036 
2599.000000	83.602543 
2598.000000	83.603043 
2597.000000	83.603544 
2596.000000	83.604052 
2595.000000	83.604563 
2594.000000	83.605062 
2593.000000	83.605533 
2592.000000	83.605969 
2591.000000	83.606378 
2590.000000	83.606768 
2589.000000	83.607148 
2588.000000	83.607526 
2587.000000	83.607914 
2586.000000	83.608306 
2585.000000	83.608675 
2584.000000	83.608983 
2583.000000	83.609197 
2582.000000	83.609309 
2581.000000	83.609374 
2580.000000	83.609509 
2579.000000	83.609807 
2578.000000	83.610251 
2577.000000	83.610748 
2576.000000	83.611270 
2575.000000	83.611869 
2574.000000	83.612560 
2573.000000	83.613257 
2572.000000	83.613832 
2571.000000	83.614227 
2570.000000	83.614540 
2569.000000	83.614989 
2568.000000	83.615686 
2567.000000	83.616403 
2566.000000	83.616751 
2565.000000	83.616664 
2564.000000	83.616472 
2563.000000	83.616400 
2562.000000	83.616216 
2561.000000	83.615687 
2560.000000	83.615168 
2559.000000	83.615292 
2558.000000	83.616126 
2557.000000	83.616996 
2556.000000	83.617246 
2555.000000	83.616956 
2554.000000	83.616698 
2553.000000	83.616776 
2552.000000	83.616918 
2551.000000	83.616705 
2550.000000	83.616103 
2549.000000	83.615514 
2548.000000	83.615357 
2547.000000	83.615698 
2546.000000	83.616245 
2545.000000	83.616775 
2544.000000	83.617455 
2543.000000	83.618527 
2542.000000	83.619850 
2541.000000	83.620939 
2540.000000	83.621454 
2539.000000	83.621497 
2538.000000	83.621344 
2537.000000	83.621032 
2536.000000	83.620433 
2535.000000	83.619625 
2534.000000	83.618986 
2533.000000	83.618853 
2532.000000	83.619199 
2531.000000	83.619683 
2530.000000	83.619934 
2529.000000	83.619816 
2528.000000	83.619405 
2527.000000	83.618844 
2526.000000	83.618272 
2525.000000	83.617788 
2524.000000	83.617437 
2523.000000	83.617212 
2522.000000	83.617088 
2521.000000	83.617021 
2520.000000	83.616942 
2519.000000	83.616770 
2518.000000	83.616479 
2517.000000	83.616118 
2516.000000	83.615747 
2515.000000	83.615395 
2514.000000	83.615079 
2513.000000	83.614845 
2512.000000	83.614719 
2511.000000	83.614673 
2510.000000	83.614638 
2509.000000	83.614545 
2508.000000	83.614337 
2507.000000	83.613993 
2506.000000	83.613561 
2505.000000	83.613181 
2504.000000	83.612971 
2503.000000	83.612939 
2502.000000	83.612932 
2501.000000	83.612741 
2500.000000	83.612299 
2499.000000	83.611707 
2498.000000	83.611144 
2497.000000	83.610713 
2496.000000	83.610390 
2495.000000	83.610035 
2494.000000	83.609514 
2493.000000	83.608871 
2492.000000	83.608343 
2491.000000	83.608113 
2490.000000	83.608110 
2489.000000	83.608106 
2488.000000	83.607986 
2487.000000	83.607774 
2486.000000	83.607480 
2485.000000	83.607095 
2484.000000	83.606723 
2483.000000	83.606541 
2482.000000	83.606597 
2481.000000	83.606739 
2480.000000	83.606758 
2479.000000	83.606565 
2478.000000	83.606242 
2477.000000	83.606018 
2476.000000	83.606140 
2475.000000	83.606641 
2474.000000	83.607265 
2473.000000	83.607711 
2472.000000	83.607916 
2471.000000	83.608001 
2470.000000	83.608006 
2469.000000	83.607828 
2468.000000	83.607400 
2467.000000	83.606785 
2466.000000	83.606110 
2465.000000	83.605522 
2464.000000	83.605142 
2463.000000	83.604925 
2462.000000	83.604620 
2461.000000	83.604070 
2460.000000	83.603517 
2459.000000	83.603385 
2458.000000	83.603742 
2457.000000	83.604109 
2456.000000	83.603911 
2455.000000	83.603039 
2454.000000	83.601943 
2453.000000	83.601207 
2452.000000	83.601037 
2451.000000	83.601246 
2450.000000	83.601542 
2449.000000	83.601693 
2448.000000	83.601513 
2447.000000	83.600917 
2446.000000	83.600074 
2445.000000	83.599360 
2444.000000	83.598909 
2443.000000	83.598415 
2442.000000	83.597549 
2441.000000	83.596385 
2440.000000	83.595270 
2439.000000	83.594424 
2438.000000	83.593842 
2437.000000	83.593515 
2436.000000	83.593458 
2435.000000	83.593523 
2434.000000	83.593433 
2433.000000	83.593048 
2432.000000	83.592457 
2431.000000	83.591797 
2430.000000	83.591134 
2429.000000	83.590543 
2428.000000	83.590136 
2427.000000	83.589920 
2426.000000	83.589748 
2425.000000	83.589463 
2424.000000	83.589062 
2423.000000	83.588682 
2422.000000	83.588393 
2421.000000	83.588013 
2420.000000	83.587272 
2419.000000	83.586126 
2418.000000	83.584875 
2417.000000	83.583987 
2416.000000	83.583726 
2415.000000	83.583902 
2414.000000	83.584083 
2413.000000	83.584132 
2412.000000	83.584255 
2411.000000	83.584505 
2410.000000	83.584573 
2409.000000	83.584257 
2408.000000	83.583917 
2407.000000	83.584161 
2406.000000	83.585161 
2405.000000	83.586354 
2404.000000	83.586841 
2403.000000	83.586125 
2402.000000	83.584598 
2401.000000	83.583396 
2400.000000	83.583422 
2399.000000	83.584503 
2398.000000	83.585605 
2397.000000	83.585905 
2396.000000	83.585460 
2395.000000	83.584875 
2394.000000	83.584630 
2393.000000	83.584887 
2392.000000	83.585394 
2391.000000	83.585685 
2390.000000	83.585473 
2389.000000	83.584905 
2388.000000	83.584290 
2387.000000	83.583556 
2386.000000	83.582589 
2385.000000	83.581546 
2384.000000	83.580690 
2383.000000	83.580149 
2382.000000	83.579965 
2381.000000	83.580254 
2380.000000	83.581050 
2379.000000	83.582035 
2378.000000	83.582674 
2377.000000	83.582697 
2376.000000	83.582236 
2375.000000	83.581514 
2374.000000	83.580671 
2373.000000	83.579834 
2372.000000	83.579122 
2371.000000	83.578486 
2370.000000	83.577766 
2369.000000	83.576971 
2368.000000	83.576255 
2367.000000	83.575594 
2366.000000	83.574779 
2365.000000	83.573774 
2364.000000	83.572751 
2363.000000	83.571629 
2362.000000	83.570155 
2361.000000	83.568498 
2360.000000	83.566944 
2359.000000	83.565574 
2358.000000	83.564246 
2357.000000	83.562922 
2356.000000	83.561710 
2355.000000	83.560506 
2354.000000	83.559549 
2353.000000	83.558963 
2352.000000	83.558279 
2351.000000	83.556780 
2350.000000	83.554040 
2349.000000	83.550330 
2348.000000	83.546372 
2347.000000	83.543422 
2346.000000	83.542126 
2345.000000	83.541962 
2344.000000	83.541655 
2343.000000	83.540534 
2342.000000	83.539187 
2341.000000	83.538036 
2340.000000	83.537074 
2339.000000	83.536246 
2338.000000	83.535632 
2337.000000	83.535270 
2336.000000	83.534819 
2335.000000	83.533952 
2334.000000	83.532988 
2333.000000	83.532341 
2332.000000	83.531745 
2331.000000	83.530893 
2330.000000	83.529454 
2329.000000	83.527993 
2328.000000	83.526203 
2327.000000	83.524216 
2326.000000	83.522538 
2325.000000	83.521321 
2324.000000	83.520814 
2323.000000	83.520473 
2322.000000	83.520790 
2321.000000	83.521518 
2320.000000	83.522340 
2319.000000	83.523015 
2318.000000	83.523522 
2317.000000	83.524071 
2316.000000	83.524328 
2315.000000	83.524789 
2314.000000	83.525853 
2313.000000	83.527912 
2312.000000	83.529977 
2311.000000	83.531383 
2310.000000	83.532023 
2309.000000	83.532520 
2308.000000	83.533552 
2307.000000	83.535863 
2306.000000	83.539902 
2305.000000	83.544278 
2304.000000	83.546747 
2303.000000	83.546589 
2302.000000	83.546013 
2301.000000	83.546422 
2300.000000	83.547473 
2299.000000	83.549395 
2298.000000	83.551803 
2297.000000	83.553932 
2296.000000	83.554185 
2295.000000	83.552907 
2294.000000	83.551802 
2293.000000	83.552105 
2292.000000	83.553230 
2291.000000	83.553818 
2290.000000	83.553849 
2289.000000	83.554195 
2288.000000	83.555746 
2287.000000	83.558034 
2286.000000	83.559912 
2285.000000	83.560419 
2284.000000	83.559840 
2283.000000	83.558988 
2282.000000	83.558355 
2281.000000	83.557920 
2280.000000	83.557771 
2279.000000	83.558079 
2278.000000	83.558753 
2277.000000	83.559425 
2276.000000	83.559782 
2275.000000	83.559857 
2274.000000	83.559855 
2273.000000	83.559926 
2272.000000	83.560073 
2271.000000	83.560242 
2270.000000	83.560389 
2269.000000	83.560485 
2268.000000	83.560536 
2267.000000	83.560580 
2266.000000	83.560659 
2265.000000	83.560773 
2264.000000	83.560895 
2263.000000	83.560996 
2262.000000	83.561074 
2261.000000	83.561147 
2260.000000	83.561229 
2259.000000	83.561325 
2258.000000	83.561429 
2257.000000	83.561533 
2256.000000	83.561630 
2255.000000	83.561723 
2254.000000	83.561820 
2253.000000	83.561931 
2252.000000	83.562067 
2251.000000	83.562238 
2250.000000	83.562444 
2249.000000	83.562673 
2248.000000	83.562904 
2247.000000	83.563125 
2246.000000	83.563362 
2245.000000	83.563663 
2244.000000	83.564043 
2243.000000	83.564477 
2242.000000	83.564931 
2241.000000	83.565388 
2240.000000	83.565840 
2239.000000	83.566293 
2238.000000	83.566763 
2237.000000	83.567254 
2236.000000	83.567745 
2235.000000	83.568200 
2234.000000	83.568611 
2233.000000	83.569024 
2232.000000	83.569503 
2231.000000	83.570069 
2230.000000	83.570680 
2229.000000	83.571263 
2228.000000	83.571778 
2227.000000	83.572232 
2226.000000	83.572625 
2225.000000	83.572926 
2224.000000	83.573106 
2223.000000	83.573205 
2222.000000	83.573346 
2221.000000	83.573614 
2220.000000	83.573961 
2219.000000	83.574257 
2218.000000	83.574451 
2217.000000	83.574645 
2216.000000	83.574954 
2215.000000	83.575354 
2214.000000	83.575707 
2213.000000	83.575935 
2212.000000	83.576088 
2211.000000	83.576260 
2210.000000	83.576469 
2209.000000	83.576656 
2208.000000	83.576752 
2207.000000	83.576733 
2206.000000	83.576638 
2205.000000	83.576557 
2204.000000	83.576561 
2203.000000	83.576637 
2202.000000	83.576713 
2201.000000	83.576709 
2200.000000	83.576587 
2199.000000	83.576355 
2198.000000	83.576070 
2197.000000	83.575801 
2196.000000	83.575588 
2195.000000	83.575423 
2194.000000	83.575259 
2193.000000	83.575049 
2192.000000	83.574781 
2191.000000	83.574482 
2190.000000	83.574189 
2189.000000	83.573916 
2188.000000	83.573653 
2187.000000	83.573381 
2186.000000	83.573096 
2185.000000	83.572826 
2184.000000	83.572604 
2183.000000	83.572421 
2182.000000	83.572248 
2181.000000	83.572047 
2180.000000	83.571812 
2179.000000	83.571544 
2178.000000	83.571258 
2177.000000	83.570961 
2176.000000	83.570656 
2175.000000	83.570343 
2174.000000	83.570015 
2173.000000	83.569665 
2172.000000	83.569291 
2171.000000	83.568906 
2170.000000	83.568527 
2169.000000	83.568170 
2168.000000	83.567832 
2167.000000	83.567496 
2166.000000	83.567136 
2165.000000	83.566743 
2164.000000	83.566328 
2163.000000	83.565924 
2162.000000	83.565536 
2161.000000	83.565122 
2160.000000	83.564644 
2159.000000	83.564117 
2158.000000	83.563578 
2157.000000	83.563039 
2156.000000	83.562500 
2155.000000	83.561978 
2154.000000	83.561490 
2153.000000	83.561010 
2152.000000	83.560483 
2151.000000	83.559883 
2150.000000	83.559242 
2149.000000	83.558627 
2148.000000	83.558077 
2147.000000	83.557574 
2146.000000	83.557056 
2145.000000	83.556472 
2144.000000	83.555828 
2143.000000	83.555176 
2142.000000	83.554567 
2141.000000	83.553999 
2140.000000	83.553440 
2139.000000	83.552860 
2138.000000	83.552274 
2137.000000	83.551721 
2136.000000	83.551225 
2135.000000	83.550781 
2134.000000	83.550360 
2133.000000	83.549929 
2132.000000	83.549480 
2131.000000	83.549036 
2130.000000	83.548629 
2129.000000	83.548270 
2128.000000	83.547945 
2127.000000	83.547639 
2126.000000	83.547339 
2125.000000	83.547047 
2124.000000	83.546771 
2123.000000	83.546527 
2122.000000	83.546322 
2121.000000	83.546163 
2120.000000	83.546048 
2119.000000	83.545969 
2118.000000	83.545920 
2117.000000	83.545897 
2116.000000	83.545904 
2115.000000	83.545944 
2114.000000	83.546019 
2113.000000	83.546125 
2112.000000	83.546254 
2111.000000	83.546399 
2110.000000	83.546560 
2109.000000	83.546740 
2108.000000	83.546945 
2107.000000	83.547175 
2106.000000	83.547424 
2105.000000	83.547681 
2104.000000	83.547942 
2103.000000	83.548215 
2102.000000	83.548512 
2101.000000	83.548836 
2100.000000	83.549181 
2099.000000	83.549539 
2098.000000	83.549898 
2097.000000	83.550246 
2096.000000	83.550575 
2095.000000	83.550900 
2094.000000	83.551247 
2093.000000	83.551640 
2092.000000	83.552065 
2091.000000	83.552463 
2090.000000	83.552759 
2089.000000	83.552922 
2088.000000	83.553020 
2087.000000	83.553169 
2086.000000	83.553418 
2085.000000	83.553697 
2084.000000	83.553953 
2083.000000	83.554286 
2082.000000	83.554863 
2081.000000	83.555686 
2080.000000	83.556526 
2079.000000	83.557104 
2078.000000	83.557246 
2077.000000	83.556950 
2076.000000	83.556408 
2075.000000	83.555956 
2074.000000	83.555860 
2073.000000	83.556084 
2072.000000	83.556293 
2071.000000	83.556122 
2070.000000	83.555459 
2069.000000	83.554563 
2068.000000	83.553928 
2067.000000	83.553848 
2066.000000	83.554053 
2065.000000	83.553919 
2064.000000	83.553200 
2063.000000	83.552370 
2062.000000	83.552048 
2061.000000	83.552215 
2060.000000	83.552243 
2059.000000	83.551609 
2058.000000	83.550303 
2057.000000	83.548661 
2056.000000	83.547015 
2055.000000	83.545609 
2054.000000	83.544580 
2053.000000	83.543875 
2052.000000	83.543252 
2051.000000	83.542414 
2050.000000	83.541191 
2049.000000	83.539638 
2048.000000	83.537997 
2047.000000	83.536509 
2046.000000	83.535224 
2045.000000	83.534044 
2044.000000	83.532873 
2043.000000	83.531638 
2042.000000	83.530228 
2041.000000	83.528578 
2040.000000	83.526811 
2039.000000	83.525160 
2038.000000	83.523714 
2037.000000	83.522332 
2036.000000	83.520816 
2035.000000	83.519112 
2034.000000	83.517300 
2033.000000	83.515494 
2032.000000	83.513746 
2031.000000	83.512055 
2030.000000	83.510379 
2029.000000	83.508652 
2028.000000	83.506840 
2027.000000	83.504994 
2026.000000	83.503205 
2025.000000	83.501504 
2024.000000	83.499847 
2023.000000	83.498183 
2022.000000	83.496510 
2021.000000	83.494838 
2020.000000	83.493181 
2019.000000	83.491571 
2018.000000	83.490015 
2017.000000	83.488458 
2016.000000	83.486846 
2015.000000	83.485179 
2014.000000	83.483501 
2013.000000	83.481871 
2012.000000	83.480304 
2011.000000	83.478788 
2010.000000	83.477301 
2009.000000	83.475825 
2008.000000	83.474352 
2007.000000	83.472888 
2006.000000	83.471453 
2005.000000	83.470060 
2004.000000	83.468704 
2003.000000	83.467369 
2002.000000	83.466062 
2001.000000	83.464802 
2000.000000	83.463584 
1999.000000	83.462375 
1998.000000	83.461159 
1997.000000	83.459958 
1996.000000	83.458809 
1995.000000	83.457715 
1994.000000	83.456655 
1993.000000	83.455616 
1992.000000	83.454603 
1991.000000	83.453620 
1990.000000	83.452655 
1989.000000	83.451687 
1988.000000	83.450699 
1987.000000	83.449693 
1986.000000	83.448680 
1985.000000	83.447669 
1984.000000	83.446664 
1983.000000	83.445661 
1982.000000	83.444661 
1981.000000	83.443666 
1980.000000	83.442684 
1979.000000	83.441715 
1978.000000	83.440754 
1977.000000	83.439786 
1976.000000	83.438798 
1975.000000	83.437784 
1974.000000	83.436746 
1973.000000	83.435698 
1972.000000	83.434654 
1971.000000	83.433624 
1970.000000	83.432610 
1969.000000	83.431599 
1968.000000	83.430565 
1967.000000	83.429494 
1966.000000	83.428391 
1965.000000	83.427269 
1964.000000	83.426140 
1963.000000	83.424994 
1962.000000	83.423808 
1961.000000	83.422554 
1960.000000	83.421237 
1959.000000	83.419892 
1958.000000	83.418554 
1957.000000	83.417228 
1956.000000	83.415890 
1955.000000	83.414515 
1954.000000	83.413099 
1953.000000	83.411662 
1952.000000	83.410229 
1951.000000	83.408814 
1950.000000	83.407418 
1949.000000	83.406024 
1948.000000	83.404610 
1947.000000	83.403155 
1946.000000	83.401650 
1945.000000	83.400126 
1944.000000	83.398642 
1943.000000	83.397253 
1942.000000	83.395960 
1941.000000	83.394695 
1940.000000	83.393386 
1939.000000	83.391995 
1938.000000	83.390481 
1937.000000	83.388793 
1936.000000	83.386954 
1935.000000	83.385147 
1934.000000	83.383568 
1933.000000	83.382253 
1932.000000	83.381051 
1931.000000	83.379823 
1930.000000	83.378588 
1929.000000	83.377421 
1928.000000	83.376260 
1927.000000	83.374951 
1926.000000	83.373466 
1925.000000	83.371952 
1924.000000	83.370618 
1923.000000	83.369495 
1922.000000	83.368359 
1921.000000	83.366984 
1920.000000	83.365408 
1919.000000	83.363892 
1918.000000	83.362577 
1917.000000	83.361278 
1916.000000	83.359852 
1915.000000	83.358633 
1914.000000	83.358149 
1913.000000	83.358382 
1912.000000	83.358560 
1911.000000	83.358015 
1910.000000	83.356900 
1909.000000	83.355739 
1908.000000	83.354361 
1907.000000	83.352049 
1906.000000	83.348691 
1905.000000	83.344848 
1904.000000	83.341286 
1903.000000	83.338677 
1902.000000	83.337549 
1901.000000	83.338010 
1900.000000	83.339277 
1899.000000	83.340429 
1898.000000	83.341442 
1897.000000	83.342509 
1896.000000	83.342959 
1895.000000	83.341790 
1894.000000	83.339405 
1893.000000	83.337757 
1892.000000	83.338272 
1891.000000	83.340515 
1890.000000	83.342690 
1889.000000	83.342999 
1888.000000	83.340821 
1887.000000	83.337060 
1886.000000	83.333458 
1885.000000	83.331271 
1884.000000	83.330376 
1883.000000	83.329932 
1882.000000	83.329822 
1881.000000	83.330995 
1880.000000	83.334183 
1879.000000	83.338670 
1878.000000	83.342487 
1877.000000	83.343506 
1876.000000	83.341175 
1875.000000	83.337487 
1874.000000	83.335262 
1873.000000	83.335493 
1872.000000	83.337061 
1871.000000	83.338964 
1870.000000	83.341969 
1869.000000	83.346783 
1868.000000	83.351210 
1867.000000	83.352493 
1866.000000	83.351415 
1865.000000	83.350733 
1864.000000	83.351734 
1863.000000	83.354068 
1862.000000	83.357657 
1861.000000	83.363435 
1860.000000	83.371854 
1859.000000	83.381741 
1858.000000	83.390951 
1857.000000	83.397499 
1856.000000	83.400608 
1855.000000	83.401914 
1854.000000	83.404196 
1853.000000	83.408501 
1852.000000	83.413255 
1851.000000	83.416439 
1850.000000	83.418510 
1849.000000	83.421093 
1848.000000	83.424376 
1847.000000	83.427640 
1846.000000	83.431047 
1845.000000	83.435126 
1844.000000	83.438532 
1843.000000	83.439525 
1842.000000	83.439229 
1841.000000	83.440495 
1840.000000	83.444190 
1839.000000	83.448480 
1838.000000	83.451156 
1837.000000	83.451747 
1836.000000	83.451621 
1835.000000	83.452396 
1834.000000	83.454582 
1833.000000	83.457842 
1832.000000	83.461388 
1831.000000	83.463781 
1830.000000	83.463466 
1829.000000	83.460371 
1828.000000	83.457104 
1827.000000	83.456669 
1826.000000	83.459550 
1825.000000	83.463345 
1824.000000	83.464947 
1823.000000	83.464185 
1822.000000	83.463947 
1821.000000	83.466781 
1820.000000	83.472122 
1819.000000	83.476943 
1818.000000	83.478951 
1817.000000	83.478366 
1816.000000	83.477107 
1815.000000	83.476744 
1814.000000	83.478215 
1813.000000	83.482350 
1812.000000	83.488313 
1811.000000	83.492494 
1810.000000	83.491394 
1809.000000	83.486234 
1808.000000	83.481802 
1807.000000	83.481191 
1806.000000	83.484762 
1805.000000	83.491826 
1804.000000	83.501249 
1803.000000	83.510736 
1802.000000	83.517792 
1801.000000	83.522041 
1800.000000	83.524318 
1799.000000	83.525438 
1798.000000	83.526586 
1797.000000	83.528728 
1796.000000	83.531253 
1795.000000	83.533163 
1794.000000	83.536346 
1793.000000	83.545677 
1792.000000	83.562612 
1791.000000	83.580649 
1790.000000	83.593021 
1789.000000	83.600325 
1788.000000	83.606495 
1787.000000	83.613287 
1786.000000	83.620392 
1785.000000	83.627293 
1784.000000	83.633962 
1783.000000	83.640651 
1782.000000	83.649116 
1781.000000	83.661885 
1780.000000	83.677328 
1779.000000	83.691025 
1778.000000	83.701155 
1777.000000	83.708877 
1776.000000	83.714307 
1775.000000	83.716005 
1774.000000	83.715455 
1773.000000	83.718599 
1772.000000	83.729450 
1771.000000	83.744575 
1770.000000	83.759625 
1769.000000	83.775345 
1768.000000	83.793615 
1767.000000	83.811272 
1766.000000	83.823222 
1765.000000	83.829930 
1764.000000	83.836493 
1763.000000	83.846503 
1762.000000	83.857927 
1761.000000	83.865586 
1760.000000	83.867978 
1759.000000	83.868896 
1758.000000	83.872323 
1757.000000	83.878880 
1756.000000	83.884709 
1755.000000	83.885518 
1754.000000	83.881526 
1753.000000	83.876415 
1752.000000	83.874727 
1751.000000	83.879730 
1750.000000	83.889332 
1749.000000	83.897118 
1748.000000	83.900550 
1747.000000	83.900827 
1746.000000	83.899925 
1745.000000	83.900021 
1744.000000	83.901995 
1743.000000	83.904067 
1742.000000	83.901982 
1741.000000	83.893601 
1740.000000	83.881824 
1739.000000	83.869911 
1738.000000	83.856533 
1737.000000	83.840342 
1736.000000	83.822714 
1735.000000	83.805546 
1734.000000	83.790339 
1733.000000	83.777619 
1732.000000	83.768232 
1731.000000	83.763952 
1730.000000	83.762280 
1729.000000	83.756442 
1728.000000	83.744421 
1727.000000	83.730521 
1726.000000	83.718583 
1725.000000	83.707471 
1724.000000	83.694856 
1723.000000	83.682183 
1722.000000	83.670969 
1721.000000	83.659898 
1720.000000	83.646504 
1719.000000	83.628866 
1718.000000	83.607415 
1717.000000	83.588050 
1716.000000	83.575943 
1715.000000	83.567727 
1714.000000	83.558645 
1713.000000	83.548448 
1712.000000	83.539752 
1711.000000	83.534497 
1710.000000	83.530819 
1709.000000	83.525697 
1708.000000	83.518586 
1707.000000	83.511185 
1706.000000	83.505457 
1705.000000	83.501805 
1704.000000	83.499274 
1703.000000	83.496328 
1702.000000	83.490861 
1701.000000	83.483207 
1700.000000	83.476881 
1699.000000	83.472274 
1698.000000	83.470374 
1697.000000	83.477880 
1696.000000	83.494452 
1695.000000	83.506853 
1694.000000	83.506587 
1693.000000	83.500458 
1692.000000	83.498530 
1691.000000	83.505373 
1690.000000	83.519380 
1689.000000	83.535079 
1688.000000	83.546315 
1687.000000	83.550082 
1686.000000	83.548612 
1685.000000	83.550251 
1684.000000	83.562083 
1683.000000	83.577992 
1682.000000	83.590465 
1681.000000	83.600915 
1680.000000	83.611177 
1679.000000	83.619524 
1678.000000	83.624901 
1677.000000	83.628968 
1676.000000	83.633951 
1675.000000	83.641024 
1674.000000	83.649509 
1673.000000	83.657747 
1672.000000	83.664009 
1671.000000	83.666723 
1670.000000	83.665442 
1669.000000	83.663139 
1668.000000	83.664241 
1667.000000	83.670187 
1666.000000	83.679738 
1665.000000	83.690671 
1664.000000	83.700573 
1663.000000	83.706701 
1662.000000	83.707646 
1661.000000	83.705788 
1660.000000	83.703183 
1659.000000	83.700344 
1658.000000	83.698112 
1657.000000	83.696902 
1656.000000	83.693875 
1655.000000	83.683181 
1654.000000	83.663121 
1653.000000	83.641758 
1652.000000	83.630721 
1651.000000	83.627640 
1650.000000	83.624156 
1649.000000	83.618347 
1648.000000	83.608460 
1647.000000	83.593887 
1646.000000	83.579930 
1645.000000	83.571866 
1644.000000	83.568583 
1643.000000	83.565731 
1642.000000	83.559619 
1641.000000	83.550733 
1640.000000	83.542587 
1639.000000	83.538245 
1638.000000	83.536395 
1637.000000	83.532209 
1636.000000	83.524124 
1635.000000	83.518962 
1634.000000	83.522786 
1633.000000	83.530926 
1632.000000	83.539419 
1631.000000	83.549498 
1630.000000	83.562297 
1629.000000	83.576994 
1628.000000	83.591986 
1627.000000	83.607796 
1626.000000	83.626122 
1625.000000	83.646813 
1624.000000	83.666949 
1623.000000	83.684160 
1622.000000	83.699296 
1621.000000	83.714614 
1620.000000	83.731252 
1619.000000	83.750380 
1618.000000	83.774675 
1617.000000	83.805983 
1616.000000	83.840821 
1615.000000	83.873215 
1614.000000	83.900490 
1613.000000	83.921963 
1612.000000	83.937650 
1611.000000	83.949815 
1610.000000	83.963826 
1609.000000	83.983560 
1608.000000	84.007509 
1607.000000	84.032513 
1606.000000	84.057431 
1605.000000	84.082057 
1604.000000	84.104308 
1603.000000	84.122617 
1602.000000	84.138328 
1601.000000	84.153072 
1600.000000	84.167465 
1599.000000	84.182419 
1598.000000	84.198811 
1597.000000	84.214783 
1596.000000	84.225897 
1595.000000	84.229593 
1594.000000	84.228094 
1593.000000	84.225553 
1592.000000	84.223945 
1591.000000	84.223271 
1590.000000	84.223356 
1589.000000	84.223868 
1588.000000	84.224380 
1587.000000	84.225814 
1586.000000	84.228752 
1585.000000	84.231070 
1584.000000	84.229339 
1583.000000	84.222802 
1582.000000	84.215963 
1581.000000	84.213044 
1580.000000	84.212905 
1579.000000	84.211613 
1578.000000	84.206384 
1577.000000	84.194636 
1576.000000	84.176212 
1575.000000	84.158476 
1574.000000	84.147321 
1573.000000	84.140337 
1572.000000	84.132905 
1571.000000	84.123763 
1570.000000	84.115711 
1569.000000	84.110326 
1568.000000	84.104688 
1567.000000	84.096976 
1566.000000	84.088973 
1565.000000	84.082346 
1564.000000	84.077945 
1563.000000	84.075678 
1562.000000	84.075648 
1561.000000	84.073438 
1560.000000	84.064810 
1559.000000	84.056906 
1558.000000	84.057360 
1557.000000	84.059391 
1556.000000	84.058172 
1555.000000	84.057202 
1554.000000	84.058283 
1553.000000	84.059993 
1552.000000	84.059854 
1551.000000	84.057961 
1550.000000	84.055556 
1549.000000	84.053666 
1548.000000	84.054568 
1547.000000	84.060374 
1546.000000	84.071759 
1545.000000	84.088731 
1544.000000	84.110570 
1543.000000	84.136441 
1542.000000	84.164940 
1541.000000	84.191552 
1540.000000	84.203985 
1539.000000	84.193696 
1538.000000	84.167755 
1537.000000	84.134309 
1536.000000	84.095613 
1535.000000	84.052046 
1534.000000	84.007532 
1533.000000	83.970282 
1532.000000	83.941466 
1531.000000	83.915830 
1530.000000	83.891838 
1529.000000	83.871667 
1528.000000	83.855945 
1527.000000	83.842122 
1526.000000	83.828180 
1525.000000	83.815752 
1524.000000	83.806705 
1523.000000	83.800972 
1522.000000	83.797962 
1521.000000	83.794602 
1520.000000	83.785433 
1519.000000	83.769873 
1518.000000	83.754773 
1517.000000	83.746201 
1516.000000	83.742198 
1515.000000	83.736809 
1514.000000	83.729086 
1513.000000	83.722415 
1512.000000	83.718910 
1511.000000	83.716037 
1510.000000	83.709280 
1509.000000	83.697176 
1508.000000	83.686200 
1507.000000	83.684571 
1506.000000	83.686835 
1505.000000	83.683235 
1504.000000	83.673271 
1503.000000	83.662374 
1502.000000	83.655903 
1501.000000	83.655204 
1500.000000	83.658343 
1499.000000	83.661160 
1498.000000	83.658830 
1497.000000	83.651892 
1496.000000	83.647906 
1495.000000	83.649858 
1494.000000	83.651960 
1493.000000	83.649991 
1492.000000	83.645956 
1491.000000	83.645983 
1490.000000	83.653611 
1489.000000	83.664985 
1488.000000	83.672746 
1487.000000	83.672941 
1486.000000	83.666629 
1485.000000	83.657415 
1484.000000	83.649515 
1483.000000	83.646938 
1482.000000	83.651865 
1481.000000	83.661542 
1480.000000	83.670926 
1479.000000	83.678845 
1478.000000	83.689495 
1477.000000	83.706967 
1476.000000	83.730104 
1475.000000	83.754041 
1474.000000	83.778414 
1473.000000	83.808906 
1472.000000	83.844375 
1471.000000	83.874750 
1470.000000	83.896039 
1469.000000	83.913453 
1468.000000	83.932563 
1467.000000	83.954508 
1466.000000	83.976563 
1465.000000	83.994370 
1464.000000	84.002885 
1463.000000	84.000966 
1462.000000	83.992773 
1461.000000	83.984118 
1460.000000	83.979675 
1459.000000	83.979732 
1458.000000	83.974010 
1457.000000	83.943087 
1456.000000	83.886394 
1455.000000	83.827174 
1454.000000	83.782563 
1453.000000	83.754870 
1452.000000	83.738040 
1451.000000	83.725920 
1450.000000	83.719599 
1449.000000	83.725312 
1448.000000	83.744645 
1447.000000	83.766697 
1446.000000	83.777657 
1445.000000	83.774805 
1444.000000	83.763688 
1443.000000	83.751530 
1442.000000	83.743231 
1441.000000	83.739644 
1440.000000	83.740015 
1439.000000	83.744316 
1438.000000	83.752144 
1437.000000	83.760046 
1436.000000	83.762801 
1435.000000	83.758054 
1434.000000	83.748811 
1433.000000	83.739721 
1432.000000	83.732164 
1431.000000	83.724370 
1430.000000	83.713372 
1429.000000	83.697603 
1428.000000	83.679754 
1427.000000	83.664025 
1426.000000	83.651285 
1425.000000	83.637990 
1424.000000	83.619713 
1423.000000	83.596226 
1422.000000	83.569472 
1421.000000	83.538910 
1420.000000	83.502690 
1419.000000	83.461137 
1418.000000	83.414271 
1417.000000	83.360968 
1416.000000	83.303557 
1415.000000	83.245897 
1414.000000	83.189286 
1413.000000	83.133156 
1412.000000	83.079321 
1411.000000	83.032158 
1410.000000	82.992433 
1409.000000	82.957184 
1408.000000	82.927138 
1407.000000	82.907862 
1406.000000	82.903743 
1405.000000	82.915455 
1404.000000	82.941454 
1403.000000	82.977327 
1402.000000	83.016015 
1401.000000	83.053066 
1400.000000	83.088163 
1399.000000	83.116107 
1398.000000	83.117699 
1397.000000	83.070428 
1396.000000	82.974062 
1395.000000	82.871167 
1394.000000	82.825243 
1393.000000	82.860139 
1392.000000	82.945735 
1391.000000	83.034696 
1390.000000	83.096082 
1389.000000	83.122153 
1388.000000	83.119797 
1387.000000	83.101421 
1386.000000	83.078908 
1385.000000	83.060596 
1384.000000	83.051211 
1383.000000	83.052379 
1382.000000	83.062693 
1381.000000	83.079255 
1380.000000	83.100197 
1379.000000	83.125269 
1378.000000	83.154678 
1377.000000	83.188197 
1376.000000	83.225167 
1375.000000	83.264175 
1374.000000	83.302841 
1373.000000	83.339641 
1372.000000	83.376081 
1371.000000	83.415722 
1370.000000	83.460712 
1369.000000	83.508874 
1368.000000	83.554877 
1367.000000	83.595080 
1366.000000	83.630509 
1365.000000	83.665233 
1364.000000	83.702091 
1363.000000	83.739885 
1362.000000	83.775084 
1361.000000	83.806046 
1360.000000	83.834019 
1359.000000	83.860632 
1358.000000	83.886881 
1357.000000	83.914025 
1356.000000	83.943046 
1355.000000	83.972218 
1354.000000	83.997136 
1353.000000	84.015692 
1352.000000	84.030093 
1351.000000	84.042733 
1350.000000	84.055087 
1349.000000	84.067854 
1348.000000	84.079616 
1347.000000	84.088895 
1346.000000	84.095150 
1345.000000	84.097762 
1344.000000	84.097172 
1343.000000	84.096908 
1342.000000	84.101328 
1341.000000	84.110192 
1340.000000	84.117738 
1339.000000	84.119343 
1338.000000	84.117009 
1337.000000	84.116027 
1336.000000	84.118588 
1335.000000	84.122658 
1334.000000	84.125675 
1333.000000	84.127584 
1332.000000	84.130519 
1331.000000	84.136892 
1330.000000	84.147296 
1329.000000	84.159094 
1328.000000	84.167741 
1327.000000	84.170753 
1326.000000	84.170138 
1325.000000	84.170189 
1324.000000	84.174528 
1323.000000	84.184360 
1322.000000	84.197269 
1321.000000	84.208081 
1320.000000	84.212825 
1319.000000	84.212264 
1318.000000	84.210647 
1317.000000	84.211593 
1316.000000	84.216276 
1315.000000	84.224050 
1314.000000	84.232117 
1313.000000	84.235687 
1312.000000	84.231842 
1311.000000	84.223664 
1310.000000	84.217953 
1309.000000	84.218232 
1308.000000	84.221860 
1307.000000	84.224282 
1306.000000	84.223936 
1305.000000	84.222042 
1304.000000	84.220634 
1303.000000	84.221821 
1302.000000	84.226480 
1301.000000	84.232067 
1300.000000	84.233665 
1299.000000	84.229094 
1298.000000	84.221823 
1297.000000	84.217460 
1296.000000	84.218232 
1295.000000	84.222159 
1294.000000	84.226088 
1293.000000	84.227774 
1292.000000	84.226254 
1291.000000	84.222240 
1290.000000	84.217612 
1289.000000	84.213111 
1288.000000	84.206844 
1287.000000	84.196402 
1286.000000	84.182303 
1285.000000	84.167313 
1284.000000	84.153155 
1283.000000	84.140120 
1282.000000	84.128007 
1281.000000	84.115982 
1280.000000	84.102641 
1279.000000	84.086482 
1278.000000	84.066837 
1277.000000	84.045042 
1276.000000	84.023658 
1275.000000	84.003848 
1274.000000	83.984023 
1273.000000	83.961850 
1272.000000	83.937314 
1271.000000	83.912633 
1270.000000	83.889084 
1269.000000	83.865430 
1268.000000	83.840196 
1267.000000	83.813889 
1266.000000	83.787555 
1265.000000	83.760234 
1264.000000	83.729204 
1263.000000	83.692457 
1262.000000	83.650607 
1261.000000	83.607016 
1260.000000	83.565818 
1259.000000	83.528166 
1258.000000	83.490360 
1257.000000	83.448289 
1256.000000	83.404143 
1255.000000	83.365255 
1254.000000	83.334512 
1253.000000	83.305771 
1252.000000	83.272694 
1251.000000	83.239626 
1250.000000	83.218516 
1249.000000	83.216173 
1248.000000	83.229043 
1247.000000	83.248088 
1246.000000	83.261943 
1245.000000	83.256021 
1244.000000	83.219401 
1243.000000	83.161088 
1242.000000	83.114080 
1241.000000	83.110223 
1240.000000	83.149453 
1239.000000	83.197163 
1238.000000	83.215904 
1237.000000	83.196634 
1236.000000	83.155685 
1235.000000	83.110876 
1234.000000	83.067818 
1233.000000	83.026141 
1232.000000	82.988033 
1231.000000	82.956153 
1230.000000	82.929049 
1229.000000	82.903906 
1228.000000	82.881547 
1227.000000	82.865101 
1226.000000	82.855388 
1225.000000	82.850462 
1224.000000	82.848209 
1223.000000	82.846611 
1222.000000	82.842844 
1221.000000	82.834956 
1220.000000	82.823855 
1219.000000	82.811607 
1218.000000	82.798431 
1217.000000	82.782947 
1216.000000	82.764254 
1215.000000	82.741996 
1214.000000	82.715702 
1213.000000	82.685599 
1212.000000	82.652227 
1211.000000	82.613670 
1210.000000	82.566193 
1209.000000	82.510410 
1208.000000	82.453614 
1207.000000	82.401563 
1206.000000	82.350308 
1205.000000	82.291354 
1204.000000	82.223112 
1203.000000	82.151715 
1202.000000	82.081595 
1201.000000	82.011408 
1200.000000	81.939482 
1199.000000	81.867048 
1198.000000	81.794968 
1197.000000	81.721989 
1196.000000	81.646524 
1195.000000	81.567236 
1194.000000	81.482565 
1193.000000	81.392940 
1192.000000	81.303271 
1191.000000	81.218593 
1190.000000	81.137064 
1189.000000	81.052496 
1188.000000	80.963493 
1187.000000	80.874113 
1186.000000	80.785594 
1185.000000	80.694292 
1184.000000	80.598599 
1183.000000	80.500757 
1182.000000	80.400158 
1181.000000	80.292059 
1180.000000	80.175844 
1179.000000	80.058231 
1178.000000	79.944494 
1177.000000	79.831432 
1176.000000	79.712046 
1175.000000	79.582732 
1174.000000	79.443899 
1173.000000	79.298425 
1172.000000	79.151518 
1171.000000	79.006784 
1170.000000	78.860481 
1169.000000	78.705590 
1168.000000	78.544180 
1167.000000	78.390158 
1166.000000	78.257847 
1165.000000	78.154219 
1164.000000	78.083758 
1163.000000	78.052075 
1162.000000	78.060127 
1161.000000	78.100481 
1160.000000	78.161439 
1159.000000	78.228568 
1158.000000	78.281314 
1157.000000	78.297527 
1156.000000	78.266642 
1155.000000	78.194655 
1154.000000	78.094851 
1153.000000	77.978251 
1152.000000	77.853718 
1151.000000	77.729047 
1150.000000	77.606635 
1149.000000	77.483204 
1148.000000	77.357680 
1147.000000	77.234508 
1146.000000	77.116477 
1145.000000	76.999894 
1144.000000	76.879960 
1143.000000	76.756033 
1142.000000	76.629641 
1141.000000	76.502563 
1140.000000	76.378016 
1139.000000	76.257507 
1138.000000	76.135726 
1137.000000	76.005653 
1136.000000	75.869204 
1135.000000	75.734741 
1134.000000	75.603426 
1133.000000	75.467346 
1132.000000	75.322864 
1131.000000	75.175898 
1130.000000	75.031204 
1129.000000	74.885923 
1128.000000	74.736819 
1127.000000	74.584922 
1126.000000	74.430306 
1125.000000	74.271028 
1124.000000	74.108989 
1123.000000	73.947533 
1122.000000	73.782261 
1121.000000	73.604808 
1120.000000	73.416851 
1119.000000	73.228961 
1118.000000	73.044784 
1117.000000	72.859291 
1116.000000	72.673406 
1115.000000	72.495046 
1114.000000	72.322691 
1113.000000	72.142926 
1112.000000	71.948631 
1111.000000	71.746172 
1110.000000	71.540387 
1109.000000	71.327873 
1108.000000	71.110818 
1107.000000	70.900355 
1106.000000	70.700808 
1105.000000	70.505231 
1104.000000	70.309089 
1103.000000	70.114731 
1102.000000	69.920703 
1101.000000	69.720444 
1100.000000	69.515025 
1099.000000	69.312956 
1098.000000	69.116326 
1097.000000	68.919393 
1096.000000	68.721295 
1095.000000	68.525934 
1094.000000	68.326816 
1093.000000	68.107094 
1092.000000	67.860215 
1091.000000	67.600028 
1090.000000	67.346174 
1089.000000	67.108120 
1088.000000	66.885937 
1087.000000	66.674740 
1086.000000	66.463880 
1085.000000	66.243357 
1084.000000	66.016222 
1083.000000	65.794723 
1082.000000	65.581473 
1081.000000	65.367083 
1080.000000	65.149641 
1079.000000	64.941688 
1078.000000	64.752817 
1077.000000	64.580568 
1076.000000	64.423946 
1075.000000	64.289055 
1074.000000	64.173919 
1073.000000	64.062970 
1072.000000	63.941042 
1071.000000	63.794040 
1070.000000	63.593061 
1069.000000	63.307285 
1068.000000	62.949977 
1067.000000	62.593894 
1066.000000	62.316773 
1065.000000	62.137036 
1064.000000	62.013755 
1063.000000	61.889103 
1062.000000	61.715507 
1061.000000	61.461960 
1060.000000	61.126536 
1059.000000	60.747569 
1058.000000	60.383746 
1057.000000	60.073654 
1056.000000	59.817055 
1055.000000	59.587350 
1054.000000	59.354500 
1053.000000	59.105199 
1052.000000	58.851043 
1051.000000	58.613429 
1050.000000	58.398065 
1049.000000	58.193651 
1048.000000	57.994667 
1047.000000	57.808296 
1046.000000	57.637318 
1045.000000	57.474460 
1044.000000	57.316615 
1043.000000	57.167738 
1042.000000	57.023402 
1041.000000	56.867796 
1040.000000	56.692813 
1039.000000	56.510458 
1038.000000	56.343718 
1037.000000	56.213304 
1036.000000	56.129441 
1035.000000	56.082358 
1034.000000	56.042520 
1033.000000	55.982486 
1032.000000	55.892769 
1031.000000	55.766841 
1030.000000	55.591764 
1029.000000	55.381081 
1028.000000	55.200252 
1027.000000	55.118146 
1026.000000	55.131772 
1025.000000	55.169507 
1024.000000	55.170809 
1023.000000	55.131239 
1022.000000	55.069390 
1021.000000	54.992199 
1020.000000	54.905284 
1019.000000	54.822444 
1018.000000	54.746965 
1017.000000	54.667379 
1016.000000	54.582916 
1015.000000	54.509261 
1014.000000	54.450619 
1013.000000	54.391641 
1012.000000	54.326014 
1011.000000	54.267575 
1010.000000	54.224089 
1009.000000	54.185174 
1008.000000	54.145460 
1007.000000	54.115412 
1006.000000	54.099910 
1005.000000	54.089342 
1004.000000	54.080652 
1003.000000	54.084870 
1002.000000	54.105939 
1001.000000	54.133769 
1000.000000	54.164402 
999.000000	 54.204806 
998.000000	 54.252695 
997.000000	 54.295562 
996.000000	 54.335500 
995.000000	 54.390595 
994.000000	 54.465244 
993.000000	 54.542939 
992.000000	 54.614666 
991.000000	 54.690442 
990.000000	 54.776273 
989.000000	 54.864625 
988.000000	 54.955454 
987.000000	 55.062231 
986.000000	 55.188333 
985.000000	 55.320306 
984.000000	 55.451717 
983.000000	 55.591890 
982.000000	 55.746550 
981.000000	 55.911162 
980.000000	 56.088122 
979.000000	 56.288948 
978.000000	 56.512078 
977.000000	 56.739846 
976.000000	 56.964698 
975.000000	 57.198649 
974.000000	 57.451394 
973.000000	 57.718845 
972.000000	 57.997460 
971.000000	 58.289631 
970.000000	 58.590315 
969.000000	 58.887879 
968.000000	 59.182660 
967.000000	 59.486609 
966.000000	 59.801814 
965.000000	 60.117270 
964.000000	 60.427843 
963.000000	 60.737191 
962.000000	 61.041528 
961.000000	 61.331403 
960.000000	 61.611305 
959.000000	 61.896775 
958.000000	 62.189104 
957.000000	 62.472288 
956.000000	 62.737532 
955.000000	 62.991469 
954.000000	 63.238292 
953.000000	 63.473240 
952.000000	 63.696105 
951.000000	 63.911997 
950.000000	 64.116691 
949.000000	 64.300179 
948.000000	 64.466439 
947.000000	 64.630266 
946.000000	 64.792501 
945.000000	 64.938429 
944.000000	 65.063160 
943.000000	 65.178212 
942.000000	 65.290208 
941.000000	 65.394077 
940.000000	 65.491892 
939.000000	 65.596891 
938.000000	 65.711581 
937.000000	 65.821042 
936.000000	 65.915762 
935.000000	 66.004413 
934.000000	 66.097910 
933.000000	 66.196934 
932.000000	 66.300067 
931.000000	 66.407624 
930.000000	 66.512755 
929.000000	 66.605301 
928.000000	 66.689278 
927.000000	 66.780681 
926.000000	 66.883673 
925.000000	 66.984483 
924.000000	 67.071807 
923.000000	 67.146921 
922.000000	 67.211629 
921.000000	 67.264154 
920.000000	 67.310066 
919.000000	 67.359261 
918.000000	 67.408332 
917.000000	 67.443758 
916.000000	 67.466228 
915.000000	 67.493509 
914.000000	 67.536124 
913.000000	 67.590783 
912.000000	 67.662215 
911.000000	 67.768538 
910.000000	 67.915597 
909.000000	 68.085891 
908.000000	 68.263619 
907.000000	 68.454342 
906.000000	 68.669874 
905.000000	 68.909340 
904.000000	 69.164916 
903.000000	 69.433456 
902.000000	 69.713928 
901.000000	 70.002994 
900.000000	 70.298181 
899.000000	 70.597028 
898.000000	 70.892265 
897.000000	 71.176713 
896.000000	 71.450475 
895.000000	 71.713152 
894.000000	 71.955786 
893.000000	 72.176242 
892.000000	 72.396150 
891.000000	 72.641435 
890.000000	 72.906549 
889.000000	 73.157944 
888.000000	 73.374023 
887.000000	 73.562644 
886.000000	 73.739243 
885.000000	 73.909249 
884.000000	 74.075713 
883.000000	 74.243157 
882.000000	 74.408457 
881.000000	 74.568737 
880.000000	 74.743905 
879.000000	 74.967763 
878.000000	 75.245991 
877.000000	 75.543226 
876.000000	 75.822611 
875.000000	 76.079345 
874.000000	 76.326056 
873.000000	 76.567538 
872.000000	 76.804692 
871.000000	 77.045706 
870.000000	 77.297184 
869.000000	 77.555307 
868.000000	 77.816247 
867.000000	 78.083705 
866.000000	 78.357571 
865.000000	 78.627863 
864.000000	 78.889483 
863.000000	 79.151259 
862.000000	 79.420117 
861.000000	 79.686652 
860.000000	 79.937785 
859.000000	 80.175739 
858.000000	 80.413761 
857.000000	 80.658523 
856.000000	 80.905224 
855.000000	 81.144336 
854.000000	 81.365382 
853.000000	 81.560035 
852.000000	 81.730118 
851.000000	 81.888934 
850.000000	 82.047931 
849.000000	 82.205309 
848.000000	 82.351855 
847.000000	 82.480964 
846.000000	 82.587055 
845.000000	 82.663113 
844.000000	 82.709612 
843.000000	 82.739537 
842.000000	 82.763531 
841.000000	 82.773671 
840.000000	 82.752904 
839.000000	 82.698528 
838.000000	 82.626617 
837.000000	 82.554513 
836.000000	 82.488183 
835.000000	 82.425384 
834.000000	 82.361185 
833.000000	 82.290766 
832.000000	 82.216870 
831.000000	 82.155751 
830.000000	 82.126676 
829.000000	 82.132609 
828.000000	 82.157551 
827.000000	 82.184105 
826.000000	 82.207346 
825.000000	 82.231100 
824.000000	 82.259181 
823.000000	 82.293620 
822.000000	 82.333819 
821.000000	 82.372522 
820.000000	 82.397365 
819.000000	 82.400091 
818.000000	 82.381268 
817.000000	 82.343493 
816.000000	 82.282686 
815.000000	 82.189444 
814.000000	 82.057178 
813.000000	 81.884185 
812.000000	 81.666298 
811.000000	 81.390883 
810.000000	 81.041683 
809.000000	 80.609364 
808.000000	 80.095518 
807.000000	 79.508176 
806.000000	 78.858987 
805.000000	 78.168019 
804.000000	 77.466537 
803.000000	 76.786928 
802.000000	 76.150701 
801.000000	 75.574834 
800.000000	 75.086548 
799.000000	 74.715555 
798.000000	 74.469169 
797.000000	 74.330355 
796.000000	 74.282142 
795.000000	 74.315630 
794.000000	 74.410691 
793.000000	 74.530707 
792.000000	 74.647428 
791.000000	 74.756447 
790.000000	 74.859152 
789.000000	 74.942133 
788.000000	 74.982842 
787.000000	 74.965183 
786.000000	 74.882514 
785.000000	 74.735516 
784.000000	 74.535771 
783.000000	 74.304494 
782.000000	 74.061540 
781.000000	 73.822901 
780.000000	 73.612227 
779.000000	 73.462128 
778.000000	 73.395688 
777.000000	 73.415533 
776.000000	 73.515580 
775.000000	 73.691105 
774.000000	 73.930975 
773.000000	 74.212237 
772.000000	 74.510470 
771.000000	 74.807445 
770.000000	 75.085594 
769.000000	 75.327988 
768.000000	 75.531790 
767.000000	 75.712178 
766.000000	 75.884186 
765.000000	 76.047367 
764.000000	 76.195866 
763.000000	 76.335818 
762.000000	 76.481396 
761.000000	 76.635826 
760.000000	 76.785806 
759.000000	 76.916851 
758.000000	 77.030292 
757.000000	 77.143967 
756.000000	 77.276902 
755.000000	 77.432132 
754.000000	 77.594024 
753.000000	 77.744217 
752.000000	 77.879313 
751.000000	 78.009614 
750.000000	 78.142566 
749.000000	 78.274938 
748.000000	 78.402643 
747.000000	 78.530686 
746.000000	 78.668671 
745.000000	 78.820208 
744.000000	 78.981539 
743.000000	 79.149690 
742.000000	 79.328212 
741.000000	 79.522884 
740.000000	 79.732002 
739.000000	 79.942540 
738.000000	 80.138778 
737.000000	 80.315747 
736.000000	 80.481137 
735.000000	 80.643024 
734.000000	 80.799557 
733.000000	 80.942383 
732.000000	 81.065777 
731.000000	 81.169237 
730.000000	 81.254277 
729.000000	 81.321560 
728.000000	 81.375889 
727.000000	 81.427932 
726.000000	 81.482680 
725.000000	 81.535460 
724.000000	 81.584195 
723.000000	 81.638387 
722.000000	 81.710082 
721.000000	 81.799440 
720.000000	 81.894374 
719.000000	 81.981145 
718.000000	 82.051645 
717.000000	 82.105837 
716.000000	 82.150931 
715.000000	 82.195752 
714.000000	 82.241405 
713.000000	 82.277183 
712.000000	 82.290204 
711.000000	 82.275905 
710.000000	 82.238746 
709.000000	 82.187402 
708.000000	 82.130263 
707.000000	 82.077327 
706.000000	 82.027946 
705.000000	 81.960848 
704.000000	 81.849295 
703.000000	 81.679939 
702.000000	 81.455433 
701.000000	 81.180661 
700.000000	 80.850142 
699.000000	 80.460262 
698.000000	 80.026855 
697.000000	 79.595057 
696.000000	 79.235658 
695.000000	 79.014808 
694.000000	 78.963877 
693.000000	 79.065798 
692.000000	 79.263768 
691.000000	 79.499717 
690.000000	 79.743803 
689.000000	 79.990634 
688.000000	 80.232820 
687.000000	 80.448069 
686.000000	 80.627467 
685.000000	 80.792685 
684.000000	 80.965882 
683.000000	 81.142708 
682.000000	 81.303866 
681.000000	 81.440674 
680.000000	 81.558174 
679.000000	 81.670964 
678.000000	 81.800943 
677.000000	 81.950816 
676.000000	 82.101721 
675.000000	 82.238609 
674.000000	 82.373565 
673.000000	 82.533413 
672.000000	 82.744798 
671.000000	 83.027618 
670.000000	 83.400071 
669.000000	 83.817998 
668.000000	 84.063818 
667.000000	 83.983976 
666.000000	 83.789085 
665.000000	 83.647420 
664.000000	 83.587830 
663.000000	 83.616125 
662.000000	 83.716303 
661.000000	 83.837801 
660.000000	 83.936099 
659.000000	 84.006291 
658.000000	 84.054700 
657.000000	 84.068715 
656.000000	 84.057753 
655.000000	 84.070935 
654.000000	 84.125877 
653.000000	 84.176413 
652.000000	 84.191088 
651.000000	 84.200377 
650.000000	 84.238478 

