PE IR                   SPECTRUM    ASCII       PEDS        1.60        
  -1
~SP.SP
22/12/06
12:09:15.00
23/01/09
14:40:17.00
Administrator

650.000000
4









FRONTIER FT-IR,CPU32 MAIN 00.09.9951 07-SEPTEMBER-2011 11:49:41
MIR TGS
MIR
OPTKBR
90694
0.200000

4.000000
STRONG
RATIO
SPECTRUM
MAGNITUDE
MIRACLE ATR
DOUBLE

COMBINED


0


#HDR
-1
-1
#GR
CM-1
%T
0.00002384185791015625
0.0
4000.000000
-1.000000
3351
8
89.248434
64.423469
#DATA
4000.000000	89.238629 
3999.000000	89.237581 
3998.000000	89.236569 
3997.000000	89.235700 
3996.000000	89.235085 
3995.000000	89.234777 
3994.000000	89.234555 
3993.000000	89.234031 
3992.000000	89.232989 
3991.000000	89.231496 
3990.000000	89.230008 
3989.000000	89.228976 
3988.000000	89.228506 
3987.000000	89.228291 
3986.000000	89.227849 
3985.000000	89.226942 
3984.000000	89.225647 
3983.000000	89.224204 
3982.000000	89.222835 
3981.000000	89.221689 
3980.000000	89.220831 
3979.000000	89.220239 
3978.000000	89.219825 
3977.000000	89.219430 
3976.000000	89.218805 
3975.000000	89.217679 
3974.000000	89.215961 
3973.000000	89.213936 
3972.000000	89.212169 
3971.000000	89.211096 
3970.000000	89.210766 
3969.000000	89.210922 
3968.000000	89.211251 
3967.000000	89.211580 
3966.000000	89.211804 
3965.000000	89.211722 
3964.000000	89.211056 
3963.000000	89.209661 
3962.000000	89.207778 
3961.000000	89.206044 
3960.000000	89.205023 
3959.000000	89.204791 
3958.000000	89.204981 
3957.000000	89.205154 
3956.000000	89.205081 
3955.000000	89.204744 
3954.000000	89.204233 
3953.000000	89.203720 
3952.000000	89.203382 
3951.000000	89.203243 
3950.000000	89.203150 
3949.000000	89.202888 
3948.000000	89.202385 
3947.000000	89.201679 
3946.000000	89.200737 
3945.000000	89.199407 
3944.000000	89.197631 
3943.000000	89.195797 
3942.000000	89.194621 
3941.000000	89.194452 
3940.000000	89.194790 
3939.000000	89.194631 
3938.000000	89.193446 
3937.000000	89.191614 
3936.000000	89.189882 
3935.000000	89.188711 
3934.000000	89.188134 
3933.000000	89.188038 
3932.000000	89.188351 
3931.000000	89.188959 
3930.000000	89.189646 
3929.000000	89.190085 
3928.000000	89.189912 
3927.000000	89.188816 
3926.000000	89.186735 
3925.000000	89.184231 
3924.000000	89.182342 
3923.000000	89.181527 
3922.000000	89.181106 
3921.000000	89.180170 
3920.000000	89.178899 
3919.000000	89.178310 
3918.000000	89.178913 
3917.000000	89.180192 
3916.000000	89.181214 
3915.000000	89.181406 
3914.000000	89.180704 
3913.000000	89.179533 
3912.000000	89.178618 
3911.000000	89.178209 
3910.000000	89.177587 
3909.000000	89.175949 
3908.000000	89.173488 
3907.000000	89.171331 
3906.000000	89.170144 
3905.000000	89.169268 
3904.000000	89.167427 
3903.000000	89.164322 
3902.000000	89.161120 
3901.000000	89.159227 
3900.000000	89.159137 
3899.000000	89.160370 
3898.000000	89.161814 
3897.000000	89.162282 
3896.000000	89.161292 
3895.000000	89.159561 
3894.000000	89.158277 
3893.000000	89.157608 
3892.000000	89.156453 
3891.000000	89.154235 
3890.000000	89.151875 
3889.000000	89.150348 
3888.000000	89.149263 
3887.000000	89.148256 
3886.000000	89.147869 
3885.000000	89.148608 
3884.000000	89.150324 
3883.000000	89.151953 
3882.000000	89.152431 
3881.000000	89.152078 
3880.000000	89.151781 
3879.000000	89.151894 
3878.000000	89.152258 
3877.000000	89.152366 
3876.000000	89.151953 
3875.000000	89.151206 
3874.000000	89.150275 
3873.000000	89.149352 
3872.000000	89.148562 
3871.000000	89.147809 
3870.000000	89.147364 
3869.000000	89.148053 
3868.000000	89.150159 
3867.000000	89.152333 
3866.000000	89.153003 
3865.000000	89.152538 
3864.000000	89.152236 
3863.000000	89.152491 
3862.000000	89.152881 
3861.000000	89.153101 
3860.000000	89.153397 
3859.000000	89.154178 
3858.000000	89.155620 
3857.000000	89.157951 
3856.000000	89.161186 
3855.000000	89.164405 
3854.000000	89.165935 
3853.000000	89.165702 
3852.000000	89.166068 
3851.000000	89.167739 
3850.000000	89.168388 
3849.000000	89.167382 
3848.000000	89.166485 
3847.000000	89.166710 
3846.000000	89.167524 
3845.000000	89.168225 
3844.000000	89.168705 
3843.000000	89.169315 
3842.000000	89.170389 
3841.000000	89.171889 
3840.000000	89.173388 
3839.000000	89.174520 
3838.000000	89.175230 
3837.000000	89.175690 
3836.000000	89.175873 
3835.000000	89.175489 
3834.000000	89.174451 
3833.000000	89.173190 
3832.000000	89.172252 
3831.000000	89.171854 
3830.000000	89.171885 
3829.000000	89.172043 
3828.000000	89.172017 
3827.000000	89.171641 
3826.000000	89.170963 
3825.000000	89.170258 
3824.000000	89.169657 
3823.000000	89.168952 
3822.000000	89.167747 
3821.000000	89.165930 
3820.000000	89.164537 
3819.000000	89.164735 
3818.000000	89.165469 
3817.000000	89.165046 
3816.000000	89.163446 
3815.000000	89.161699 
3814.000000	89.160733 
3813.000000	89.159611 
3812.000000	89.157089 
3811.000000	89.154757 
3810.000000	89.154878 
3809.000000	89.156915 
3808.000000	89.158132 
3807.000000	89.156721 
3806.000000	89.154017 
3805.000000	89.152527 
3804.000000	89.151743 
3803.000000	89.149191 
3802.000000	89.143614 
3801.000000	89.136160 
3800.000000	89.130713 
3799.000000	89.129449 
3798.000000	89.129895 
3797.000000	89.129974 
3796.000000	89.129944 
3795.000000	89.129351 
3794.000000	89.126938 
3793.000000	89.121806 
3792.000000	89.114748 
3791.000000	89.108048 
3790.000000	89.103540 
3789.000000	89.101836 
3788.000000	89.102883 
3787.000000	89.105795 
3786.000000	89.108594 
3785.000000	89.109507 
3784.000000	89.109035 
3783.000000	89.109410 
3782.000000	89.111688 
3781.000000	89.114583 
3780.000000	89.116184 
3779.000000	89.115954 
3778.000000	89.115047 
3777.000000	89.114253 
3776.000000	89.112504 
3775.000000	89.109451 
3774.000000	89.107177 
3773.000000	89.107705 
3772.000000	89.110377 
3771.000000	89.113055 
3770.000000	89.115018 
3769.000000	89.117574 
3768.000000	89.120820 
3767.000000	89.121548 
3766.000000	89.117099 
3765.000000	89.109671 
3764.000000	89.103904 
3763.000000	89.101482 
3762.000000	89.100590 
3761.000000	89.100363 
3760.000000	89.102233 
3759.000000	89.105969 
3758.000000	89.109051 
3757.000000	89.110611 
3756.000000	89.112339 
3755.000000	89.115836 
3754.000000	89.120853 
3753.000000	89.127523 
3752.000000	89.136421 
3751.000000	89.145225 
3750.000000	89.149877 
3749.000000	89.149816 
3748.000000	89.147663 
3747.000000	89.144016 
3746.000000	89.136924 
3745.000000	89.123662 
3744.000000	89.105448 
3743.000000	89.094094 
3742.000000	89.094063 
3741.000000	89.090828 
3740.000000	89.081073 
3739.000000	89.076998 
3738.000000	89.078640 
3737.000000	89.075331 
3736.000000	89.064885 
3735.000000	89.057207 
3734.000000	89.058845 
3733.000000	89.063085 
3732.000000	89.060702 
3731.000000	89.051135 
3730.000000	89.037499 
3729.000000	89.019567 
3728.000000	88.998015 
3727.000000	88.978708 
3726.000000	88.967594 
3725.000000	88.964765 
3724.000000	88.964878 
3723.000000	88.962687 
3722.000000	88.958053 
3721.000000	88.953336 
3720.000000	88.948882 
3719.000000	88.942478 
3718.000000	88.932080 
3717.000000	88.918825 
3716.000000	88.906354 
3715.000000	88.897472 
3714.000000	88.891897 
3713.000000	88.886371 
3712.000000	88.876125 
3711.000000	88.858780 
3710.000000	88.836456 
3709.000000	88.812125 
3708.000000	88.787516 
3707.000000	88.765368 
3706.000000	88.748629 
3705.000000	88.737282 
3704.000000	88.727629 
3703.000000	88.714928 
3702.000000	88.696967 
3701.000000	88.675551 
3700.000000	88.654063 
3699.000000	88.633418 
3698.000000	88.612037 
3697.000000	88.590128 
3696.000000	88.571187 
3695.000000	88.558568 
3694.000000	88.552824 
3693.000000	88.552572 
3692.000000	88.555406 
3691.000000	88.556197 
3690.000000	88.548245 
3689.000000	88.529927 
3688.000000	88.508253 
3687.000000	88.491364 
3686.000000	88.478640 
3685.000000	88.464175 
3684.000000	88.446873 
3683.000000	88.430778 
3682.000000	88.417633 
3681.000000	88.405061 
3680.000000	88.391091 
3679.000000	88.377674 
3678.000000	88.367626 
3677.000000	88.359275 
3676.000000	88.347671 
3675.000000	88.332546 
3674.000000	88.320965 
3673.000000	88.313304 
3672.000000	88.300570 
3671.000000	88.281477 
3670.000000	88.261499 
3669.000000	88.243904 
3668.000000	88.229791 
3667.000000	88.214737 
3666.000000	88.193523 
3665.000000	88.167966 
3664.000000	88.142638 
3663.000000	88.120630 
3662.000000	88.103762 
3661.000000	88.092719 
3660.000000	88.086560 
3659.000000	88.083170 
3658.000000	88.079961 
3657.000000	88.075014 
3656.000000	88.068790 
3655.000000	88.064209 
3654.000000	88.061946 
3653.000000	88.057898 
3652.000000	88.050490 
3651.000000	88.040949 
3650.000000	88.026893 
3649.000000	88.008711 
3648.000000	87.994801 
3647.000000	87.989326 
3646.000000	87.986681 
3645.000000	87.980757 
3644.000000	87.971266 
3643.000000	87.961805 
3642.000000	87.954456 
3641.000000	87.947585 
3640.000000	87.938379 
3639.000000	87.926846 
3638.000000	87.916239 
3637.000000	87.909563 
3636.000000	87.905610 
3635.000000	87.900468 
3634.000000	87.893611 
3633.000000	87.889611 
3632.000000	87.892376 
3631.000000	87.899105 
3630.000000	87.899782 
3629.000000	87.883982 
3628.000000	87.857244 
3627.000000	87.837989 
3626.000000	87.829586 
3625.000000	87.824052 
3624.000000	87.822866 
3623.000000	87.829442 
3622.000000	87.840059 
3621.000000	87.849312 
3620.000000	87.855011 
3619.000000	87.858471 
3618.000000	87.863248 
3617.000000	87.871951 
3616.000000	87.882819 
3615.000000	87.892094 
3614.000000	87.898179 
3613.000000	87.902687 
3612.000000	87.909684 
3611.000000	87.922254 
3610.000000	87.939632 
3609.000000	87.958390 
3608.000000	87.974962 
3607.000000	87.987253 
3606.000000	87.994500 
3605.000000	87.997016 
3604.000000	87.997578 
3603.000000	88.000847 
3602.000000	88.009699 
3601.000000	88.023354 
3600.000000	88.038004 
3599.000000	88.048446 
3598.000000	88.050690 
3597.000000	88.045640 
3596.000000	88.039107 
3595.000000	88.036349 
3594.000000	88.038323 
3593.000000	88.043087 
3592.000000	88.049118 
3591.000000	88.056330 
3590.000000	88.064998 
3589.000000	88.073540 
3588.000000	88.079033 
3587.000000	88.081351 
3586.000000	88.083725 
3585.000000	88.086758 
3584.000000	88.087280 
3583.000000	88.084806 
3582.000000	88.082766 
3581.000000	88.084032 
3580.000000	88.088314 
3579.000000	88.093163 
3578.000000	88.096546 
3577.000000	88.098310 
3576.000000	88.099415 
3575.000000	88.099709 
3574.000000	88.097692 
3573.000000	88.092415 
3572.000000	88.084913 
3571.000000	88.077413 
3570.000000	88.071319 
3569.000000	88.066060 
3568.000000	88.060118 
3567.000000	88.053914 
3566.000000	88.050705 
3565.000000	88.052911 
3564.000000	88.059078 
3563.000000	88.065982 
3562.000000	88.071160 
3561.000000	88.073029 
3560.000000	88.071467 
3559.000000	88.068233 
3558.000000	88.065306 
3557.000000	88.062937 
3556.000000	88.060130 
3555.000000	88.056426 
3554.000000	88.052463 
3553.000000	88.049130 
3552.000000	88.046829 
3551.000000	88.045614 
3550.000000	88.045313 
3549.000000	88.045250 
3548.000000	88.044312 
3547.000000	88.041791 
3546.000000	88.038455 
3545.000000	88.036374 
3544.000000	88.036839 
3543.000000	88.038778 
3542.000000	88.039693 
3541.000000	88.037973 
3540.000000	88.033960 
3539.000000	88.029224 
3538.000000	88.025193 
3537.000000	88.022316 
3536.000000	88.020143 
3535.000000	88.017967 
3534.000000	88.015367 
3533.000000	88.012340 
3532.000000	88.009111 
3531.000000	88.005849 
3530.000000	88.002644 
3529.000000	87.999641 
3528.000000	87.996985 
3527.000000	87.994595 
3526.000000	87.992142 
3525.000000	87.989352 
3524.000000	87.986266 
3523.000000	87.983127 
3522.000000	87.980134 
3521.000000	87.977348 
3520.000000	87.974729 
3519.000000	87.972118 
3518.000000	87.969265 
3517.000000	87.966034 
3516.000000	87.962562 
3515.000000	87.959148 
3514.000000	87.955942 
3513.000000	87.952795 
3512.000000	87.949436 
3511.000000	87.945768 
3510.000000	87.941967 
3509.000000	87.938311 
3508.000000	87.934899 
3507.000000	87.931575 
3506.000000	87.928080 
3505.000000	87.924304 
3504.000000	87.920369 
3503.000000	87.916505 
3502.000000	87.912818 
3501.000000	87.909248 
3500.000000	87.905730 
3499.000000	87.902301 
3498.000000	87.898996 
3497.000000	87.895744 
3496.000000	87.892399 
3495.000000	87.888847 
3494.000000	87.885087 
3493.000000	87.881206 
3492.000000	87.877331 
3491.000000	87.873561 
3490.000000	87.869923 
3489.000000	87.866394 
3488.000000	87.862901 
3487.000000	87.859368 
3486.000000	87.855750 
3485.000000	87.852038 
3484.000000	87.848245 
3483.000000	87.844390 
3482.000000	87.840496 
3481.000000	87.836592 
3480.000000	87.832701 
3479.000000	87.828829 
3478.000000	87.824962 
3477.000000	87.821066 
3476.000000	87.817105 
3475.000000	87.813062 
3474.000000	87.808995 
3473.000000	87.805023 
3472.000000	87.801195 
3471.000000	87.797382 
3470.000000	87.793399 
3469.000000	87.789260 
3468.000000	87.785259 
3467.000000	87.781758 
3466.000000	87.778815 
3465.000000	87.775982 
3464.000000	87.772570 
3463.000000	87.768166 
3462.000000	87.762997 
3461.000000	87.757799 
3460.000000	87.753187 
3459.000000	87.749249 
3458.000000	87.745667 
3457.000000	87.742134 
3456.000000	87.738590 
3455.000000	87.735147 
3454.000000	87.731908 
3453.000000	87.728874 
3452.000000	87.725889 
3451.000000	87.722577 
3450.000000	87.718455 
3449.000000	87.713348 
3448.000000	87.707891 
3447.000000	87.703288 
3446.000000	87.700145 
3445.000000	87.697649 
3444.000000	87.694182 
3443.000000	87.688857 
3442.000000	87.682290 
3441.000000	87.675995 
3440.000000	87.670973 
3439.000000	87.666809 
3438.000000	87.662073 
3437.000000	87.655719 
3436.000000	87.648421 
3435.000000	87.642387 
3434.000000	87.639543 
3433.000000	87.639974 
3432.000000	87.642084 
3431.000000	87.644017 
3430.000000	87.644731 
3429.000000	87.643991 
3428.000000	87.641973 
3427.000000	87.639059 
3426.000000	87.635752 
3425.000000	87.632489 
3424.000000	87.629436 
3423.000000	87.626439 
3422.000000	87.623178 
3421.000000	87.619512 
3420.000000	87.615777 
3419.000000	87.612655 
3418.000000	87.610581 
3417.000000	87.609260 
3416.000000	87.607771 
3415.000000	87.605241 
3414.000000	87.601506 
3413.000000	87.597271 
3412.000000	87.593609 
3411.000000	87.591097 
3410.000000	87.589344 
3409.000000	87.587411 
3408.000000	87.584825 
3407.000000	87.582118 
3406.000000	87.580261 
3405.000000	87.579609 
3404.000000	87.579493 
3403.000000	87.578725 
3402.000000	87.576577 
3401.000000	87.573380 
3400.000000	87.570367 
3399.000000	87.568802 
3398.000000	87.569048 
3397.000000	87.570364 
3396.000000	87.571382 
3395.000000	87.571131 
3394.000000	87.569569 
3393.000000	87.567367 
3392.000000	87.565387 
3391.000000	87.564172 
3390.000000	87.563721 
3389.000000	87.563520 
3388.000000	87.562874 
3387.000000	87.561511 
3386.000000	87.559908 
3385.000000	87.558878 
3384.000000	87.558765 
3383.000000	87.559202 
3382.000000	87.559730 
3381.000000	87.560373 
3380.000000	87.561364 
3379.000000	87.562536 
3378.000000	87.563342 
3377.000000	87.563489 
3376.000000	87.563321 
3375.000000	87.563500 
3374.000000	87.564455 
3373.000000	87.566237 
3372.000000	87.568704 
3371.000000	87.571613 
3370.000000	87.574483 
3369.000000	87.576587 
3368.000000	87.577327 
3367.000000	87.576686 
3366.000000	87.575375 
3365.000000	87.574530 
3364.000000	87.575046 
3363.000000	87.577153 
3362.000000	87.580397 
3361.000000	87.583924 
3360.000000	87.586984 
3359.000000	87.589311 
3358.000000	87.591148 
3357.000000	87.592975 
3356.000000	87.595142 
3355.000000	87.597599 
3354.000000	87.599883 
3353.000000	87.601448 
3352.000000	87.602190 
3351.000000	87.602734 
3350.000000	87.604002 
3349.000000	87.606385 
3348.000000	87.609412 
3347.000000	87.612301 
3346.000000	87.614826 
3345.000000	87.617384 
3344.000000	87.620307 
3343.000000	87.623349 
3342.000000	87.625919 
3341.000000	87.627718 
3340.000000	87.629008 
3339.000000	87.630398 
3338.000000	87.632355 
3337.000000	87.634904 
3336.000000	87.637681 
3335.000000	87.640202 
3334.000000	87.642177 
3333.000000	87.643625 
3332.000000	87.644811 
3331.000000	87.646116 
3330.000000	87.647847 
3329.000000	87.650020 
3328.000000	87.652272 
3327.000000	87.654113 
3326.000000	87.655373 
3325.000000	87.656366 
3324.000000	87.657612 
3323.000000	87.659367 
3322.000000	87.661510 
3321.000000	87.663761 
3320.000000	87.665900 
3319.000000	87.667851 
3318.000000	87.669616 
3317.000000	87.671182 
3316.000000	87.672494 
3315.000000	87.673492 
3314.000000	87.674170 
3313.000000	87.674609 
3312.000000	87.674981 
3311.000000	87.675573 
3310.000000	87.676765 
3309.000000	87.678761 
3308.000000	87.681275 
3307.000000	87.683575 
3306.000000	87.685082 
3305.000000	87.685940 
3304.000000	87.686909 
3303.000000	87.688609 
3302.000000	87.690931 
3301.000000	87.693214 
3300.000000	87.694960 
3299.000000	87.696248 
3298.000000	87.697452 
3297.000000	87.698793 
3296.000000	87.700258 
3295.000000	87.701805 
3294.000000	87.703415 
3293.000000	87.704925 
3292.000000	87.706061 
3291.000000	87.706752 
3290.000000	87.707339 
3289.000000	87.708349 
3288.000000	87.710042 
3287.000000	87.712189 
3286.000000	87.714197 
3285.000000	87.715534 
3284.000000	87.716047 
3283.000000	87.716030 
3282.000000	87.716069 
3281.000000	87.716655 
3280.000000	87.717908 
3279.000000	87.719622 
3278.000000	87.721558 
3277.000000	87.723618 
3276.000000	87.725753 
3275.000000	87.727825 
3274.000000	87.729660 
3273.000000	87.731204 
3272.000000	87.732546 
3271.000000	87.733794 
3270.000000	87.734976 
3269.000000	87.736087 
3268.000000	87.737201 
3267.000000	87.738506 
3266.000000	87.740171 
3265.000000	87.742122 
3264.000000	87.744041 
3263.000000	87.745628 
3262.000000	87.746984 
3261.000000	87.748570 
3260.000000	87.750679 
3259.000000	87.752988 
3258.000000	87.754831 
3257.000000	87.755889 
3256.000000	87.756533 
3255.000000	87.757487 
3254.000000	87.759172 
3253.000000	87.761416 
3252.000000	87.763675 
3251.000000	87.765498 
3250.000000	87.766839 
3249.000000	87.768011 
3248.000000	87.769421 
3247.000000	87.771258 
3246.000000	87.773323 
3245.000000	87.775151 
3244.000000	87.776405 
3243.000000	87.777188 
3242.000000	87.777962 
3241.000000	87.779090 
3240.000000	87.780447 
3239.000000	87.781606 
3238.000000	87.782376 
3237.000000	87.783080 
3236.000000	87.784273 
3235.000000	87.786239 
3234.000000	87.788791 
3233.000000	87.791458 
3232.000000	87.793802 
3231.000000	87.795633 
3230.000000	87.797074 
3229.000000	87.798537 
3228.000000	87.800517 
3227.000000	87.803239 
3226.000000	87.806460 
3225.000000	87.809576 
3224.000000	87.812040 
3223.000000	87.813770 
3222.000000	87.815206 
3221.000000	87.817012 
3220.000000	87.819523 
3219.000000	87.822489 
3218.000000	87.825271 
3217.000000	87.827383 
3216.000000	87.828825 
3215.000000	87.830014 
3214.000000	87.831474 
3213.000000	87.833477 
3212.000000	87.836012 
3211.000000	87.838922 
3210.000000	87.842035 
3209.000000	87.845204 
3208.000000	87.848317 
3207.000000	87.851321 
3206.000000	87.854215 
3205.000000	87.856989 
3204.000000	87.859603 
3203.000000	87.862034 
3202.000000	87.864369 
3201.000000	87.866820 
3200.000000	87.869602 
3199.000000	87.872761 
3198.000000	87.876125 
3197.000000	87.879432 
3196.000000	87.882568 
3195.000000	87.885635 
3194.000000	87.888794 
3193.000000	87.892103 
3192.000000	87.895497 
3191.000000	87.898877 
3190.000000	87.902175 
3189.000000	87.905368 
3188.000000	87.908480 
3187.000000	87.911587 
3186.000000	87.914766 
3185.000000	87.918037 
3184.000000	87.921359 
3183.000000	87.924659 
3182.000000	87.927881 
3181.000000	87.931030 
3180.000000	87.934159 
3179.000000	87.937325 
3178.000000	87.940543 
3177.000000	87.943792 
3176.000000	87.947046 
3175.000000	87.950296 
3174.000000	87.953554 
3173.000000	87.956824 
3172.000000	87.960098 
3171.000000	87.963369 
3170.000000	87.966629 
3169.000000	87.969873 
3168.000000	87.973100 
3167.000000	87.976312 
3166.000000	87.979517 
3165.000000	87.982721 
3164.000000	87.985928 
3163.000000	87.989136 
3162.000000	87.992340 
3161.000000	87.995535 
3160.000000	87.998722 
3159.000000	88.001902 
3158.000000	88.005070 
3157.000000	88.008217 
3156.000000	88.011334 
3155.000000	88.014414 
3154.000000	88.017458 
3153.000000	88.020470 
3152.000000	88.023453 
3151.000000	88.026412 
3150.000000	88.029350 
3149.000000	88.032273 
3148.000000	88.035180 
3147.000000	88.038074 
3146.000000	88.040967 
3145.000000	88.043869 
3144.000000	88.046785 
3143.000000	88.049699 
3142.000000	88.052573 
3141.000000	88.055384 
3140.000000	88.058139 
3139.000000	88.060869 
3138.000000	88.063605 
3137.000000	88.066346 
3136.000000	88.069069 
3135.000000	88.071744 
3134.000000	88.074362 
3133.000000	88.076952 
3132.000000	88.079567 
3131.000000	88.082239 
3130.000000	88.084953 
3129.000000	88.087633 
3128.000000	88.090205 
3127.000000	88.092656 
3126.000000	88.095051 
3125.000000	88.097474 
3124.000000	88.099940 
3123.000000	88.102385 
3122.000000	88.104715 
3121.000000	88.106898 
3120.000000	88.108983 
3119.000000	88.111058 
3118.000000	88.113188 
3117.000000	88.115380 
3116.000000	88.117601 
3115.000000	88.119800 
3114.000000	88.121934 
3113.000000	88.123989 
3112.000000	88.125985 
3111.000000	88.127993 
3110.000000	88.130111 
3109.000000	88.132390 
3108.000000	88.134731 
3107.000000	88.136942 
3106.000000	88.138932 
3105.000000	88.140853 
3104.000000	88.142996 
3103.000000	88.145510 
3102.000000	88.148208 
3101.000000	88.150679 
3100.000000	88.152693 
3099.000000	88.154494 
3098.000000	88.156597 
3097.000000	88.159043 
3096.000000	88.160996 
3095.000000	88.161542 
3094.000000	88.161073 
3093.000000	88.161336 
3092.000000	88.163688 
3091.000000	88.167689 
3090.000000	88.171602 
3089.000000	88.173949 
3088.000000	88.174405 
3087.000000	88.173644 
3086.000000	88.172640 
3085.000000	88.172124 
3084.000000	88.172640 
3083.000000	88.174851 
3082.000000	88.179090 
3081.000000	88.184387 
3080.000000	88.188885 
3079.000000	88.191969 
3078.000000	88.195229 
3077.000000	88.200311 
3076.000000	88.206338 
3075.000000	88.210739 
3074.000000	88.212355 
3073.000000	88.212482 
3072.000000	88.213011 
3071.000000	88.214678 
3070.000000	88.217139 
3069.000000	88.219428 
3068.000000	88.219910 
3067.000000	88.216951 
3066.000000	88.210458 
3065.000000	88.202457 
3064.000000	88.195964 
3063.000000	88.193545 
3062.000000	88.196499 
3061.000000	88.204108 
3060.000000	88.213403 
3059.000000	88.220952 
3058.000000	88.225674 
3057.000000	88.229251 
3056.000000	88.233237 
3055.000000	88.236384 
3054.000000	88.235454 
3053.000000	88.228256 
3052.000000	88.215683 
3051.000000	88.201485 
3050.000000	88.190236 
3049.000000	88.184618 
3048.000000	88.183765 
3047.000000	88.184403 
3046.000000	88.183881 
3045.000000	88.181834 
3044.000000	88.179084 
3043.000000	88.175872 
3042.000000	88.171708 
3041.000000	88.166127 
3040.000000	88.158941 
3039.000000	88.150295 
3038.000000	88.141147 
3037.000000	88.133112 
3036.000000	88.126939 
3035.000000	88.121359 
3034.000000	88.114188 
3033.000000	88.104258 
3032.000000	88.091791 
3031.000000	88.077191 
3030.000000	88.059897 
3029.000000	88.038939 
3028.000000	88.014653 
3027.000000	87.989266 
3026.000000	87.965348 
3025.000000	87.943761 
3024.000000	87.923391 
3023.000000	87.902854 
3022.000000	87.881959 
3021.000000	87.861253 
3020.000000	87.840703 
3019.000000	87.819453 
3018.000000	87.796791 
3017.000000	87.772924 
3016.000000	87.748741 
3015.000000	87.724896 
3014.000000	87.700823 
3013.000000	87.674480 
3012.000000	87.643814 
3011.000000	87.609259 
3010.000000	87.574240 
3009.000000	87.541981 
3008.000000	87.511866 
3007.000000	87.480093 
3006.000000	87.444305 
3005.000000	87.406588 
3004.000000	87.371201 
3003.000000	87.339971 
3002.000000	87.310811 
3001.000000	87.280405 
3000.000000	87.247491 
2999.000000	87.213551 
2998.000000	87.181520 
2997.000000	87.154363 
2996.000000	87.133335 
2995.000000	87.115033 
2994.000000	87.089628 
2993.000000	87.045224 
2992.000000	86.978201 
2991.000000	86.900070 
2990.000000	86.831464 
2989.000000	86.787393 
2988.000000	86.768838 
2987.000000	86.767445 
2986.000000	86.774492 
2985.000000	86.783512 
2984.000000	86.787974 
2983.000000	86.782679 
2982.000000	86.768581 
2981.000000	86.752700 
2980.000000	86.741464 
2979.000000	86.735887 
2978.000000	86.733698 
2977.000000	86.733451 
2976.000000	86.735074 
2975.000000	86.738895 
2974.000000	86.746847 
2973.000000	86.763505 
2972.000000	86.793216 
2971.000000	86.835771 
2970.000000	86.886280 
2969.000000	86.939781 
2968.000000	86.995146 
2967.000000	87.054148 
2966.000000	87.117176 
2965.000000	87.180539 
2964.000000	87.238209 
2963.000000	87.286027 
2962.000000	87.323731 
2961.000000	87.353181 
2960.000000	87.376398 
2959.000000	87.396549 
2958.000000	87.419009 
2957.000000	87.447974 
2956.000000	87.481409 
2955.000000	87.512154 
2954.000000	87.535468 
2953.000000	87.553433 
2952.000000	87.570343 
2951.000000	87.585878 
2950.000000	87.595520 
2949.000000	87.596783 
2948.000000	87.592096 
2947.000000	87.585755 
2946.000000	87.580651 
2945.000000	87.578645 
2944.000000	87.581668 
2943.000000	87.590617 
2942.000000	87.603703 
2941.000000	87.617212 
2940.000000	87.628237 
2939.000000	87.636767 
2938.000000	87.645486 
2937.000000	87.657713 
2936.000000	87.674979 
2935.000000	87.696036 
2934.000000	87.718161 
2933.000000	87.739282 
2932.000000	87.758847 
2931.000000	87.777164 
2930.000000	87.794861 
2929.000000	87.812977 
2928.000000	87.832397 
2927.000000	87.852449 
2926.000000	87.870810 
2925.000000	87.885839 
2924.000000	87.898721 
2923.000000	87.912093 
2922.000000	87.926198 
2921.000000	87.937348 
2920.000000	87.940963 
2919.000000	87.935349 
2918.000000	87.921432 
2917.000000	87.899066 
2916.000000	87.865294 
2915.000000	87.817335 
2914.000000	87.756984 
2913.000000	87.691503 
2912.000000	87.630178 
2911.000000	87.579671 
2910.000000	87.541294 
2909.000000	87.511410 
2908.000000	87.484709 
2907.000000	87.457954 
2906.000000	87.430559 
2905.000000	87.401566 
2904.000000	87.368225 
2903.000000	87.330328 
2902.000000	87.295695 
2901.000000	87.277685 
2900.000000	87.284662 
2899.000000	87.311719 
2898.000000	87.343453 
2897.000000	87.365240 
2896.000000	87.372541 
2895.000000	87.370991 
2894.000000	87.369707 
2893.000000	87.374478 
2892.000000	87.385487 
2891.000000	87.399096 
2890.000000	87.410844 
2889.000000	87.417287 
2888.000000	87.416797 
2887.000000	87.410490 
2886.000000	87.402868 
2885.000000	87.400470 
2884.000000	87.408558 
2883.000000	87.428229 
2882.000000	87.456044 
2881.000000	87.486356 
2880.000000	87.514671 
2879.000000	87.539900 
2878.000000	87.563584 
2877.000000	87.587040 
2876.000000	87.609779 
2875.000000	87.630983 
2874.000000	87.651363 
2873.000000	87.672246 
2872.000000	87.693505 
2871.000000	87.713998 
2870.000000	87.733740 
2869.000000	87.753848 
2868.000000	87.774412 
2867.000000	87.794603 
2866.000000	87.815407 
2865.000000	87.839999 
2864.000000	87.870106 
2863.000000	87.903736 
2862.000000	87.937889 
2861.000000	87.971812 
2860.000000	88.005923 
2859.000000	88.039330 
2858.000000	88.070924 
2857.000000	88.101936 
2856.000000	88.134668 
2855.000000	88.168756 
2854.000000	88.201143 
2853.000000	88.230058 
2852.000000	88.256490 
2851.000000	88.280692 
2850.000000	88.299022 
2849.000000	88.305787 
2848.000000	88.297830 
2847.000000	88.277161 
2846.000000	88.250333 
2845.000000	88.225769 
2844.000000	88.210072 
2843.000000	88.204979 
2842.000000	88.206960 
2841.000000	88.210145 
2840.000000	88.210447 
2839.000000	88.207872 
2838.000000	88.205614 
2837.000000	88.206920 
2836.000000	88.212113 
2835.000000	88.218143 
2834.000000	88.221176 
2833.000000	88.219817 
2832.000000	88.216050 
2831.000000	88.213375 
2830.000000	88.214157 
2829.000000	88.218178 
2828.000000	88.222888 
2827.000000	88.225401 
2826.000000	88.225247 
2825.000000	88.225503 
2824.000000	88.230305 
2823.000000	88.240506 
2822.000000	88.252091 
2821.000000	88.259388 
2820.000000	88.259868 
2819.000000	88.255567 
2818.000000	88.250492 
2817.000000	88.247502 
2816.000000	88.247670 
2815.000000	88.251256 
2814.000000	88.257919 
2813.000000	88.265915 
2812.000000	88.272421 
2811.000000	88.275706 
2810.000000	88.276799 
2809.000000	88.278255 
2808.000000	88.281294 
2807.000000	88.284785 
2806.000000	88.287111 
2805.000000	88.288173 
2804.000000	88.289077 
2803.000000	88.290683 
2802.000000	88.293200 
2801.000000	88.296450 
2800.000000	88.299973 
2799.000000	88.303211 
2798.000000	88.305809 
2797.000000	88.307749 
2796.000000	88.309283 
2795.000000	88.310767 
2794.000000	88.312444 
2793.000000	88.314332 
2792.000000	88.316348 
2791.000000	88.318487 
2790.000000	88.320854 
2789.000000	88.323488 
2788.000000	88.326199 
2787.000000	88.328651 
2786.000000	88.330687 
2785.000000	88.332470 
2784.000000	88.334325 
2783.000000	88.336401 
2782.000000	88.338550 
2781.000000	88.340512 
2780.000000	88.342184 
2779.000000	88.343677 
2778.000000	88.345198 
2777.000000	88.346882 
2776.000000	88.348704 
2775.000000	88.350544 
2774.000000	88.352301 
2773.000000	88.353969 
2772.000000	88.355627 
2771.000000	88.357359 
2770.000000	88.359179 
2769.000000	88.360998 
2768.000000	88.362697 
2767.000000	88.364263 
2766.000000	88.365804 
2765.000000	88.367444 
2764.000000	88.369191 
2763.000000	88.370921 
2762.000000	88.372511 
2761.000000	88.373964 
2760.000000	88.375376 
2759.000000	88.376819 
2758.000000	88.378275 
2757.000000	88.379715 
2756.000000	88.381156 
2755.000000	88.382637 
2754.000000	88.384153 
2753.000000	88.385658 
2752.000000	88.387108 
2751.000000	88.388534 
2750.000000	88.390010 
2749.000000	88.391569 
2748.000000	88.393171 
2747.000000	88.394760 
2746.000000	88.396321 
2745.000000	88.397860 
2744.000000	88.399366 
2743.000000	88.400821 
2742.000000	88.402253 
2741.000000	88.403735 
2740.000000	88.405306 
2739.000000	88.406900 
2738.000000	88.408428 
2737.000000	88.409904 
2736.000000	88.411400 
2735.000000	88.412892 
2734.000000	88.414271 
2733.000000	88.415519 
2732.000000	88.416750 
2731.000000	88.418046 
2730.000000	88.419397 
2729.000000	88.420833 
2728.000000	88.422467 
2727.000000	88.424307 
2726.000000	88.426137 
2725.000000	88.427685 
2724.000000	88.428902 
2723.000000	88.429979 
2722.000000	88.431152 
2721.000000	88.432547 
2720.000000	88.434166 
2719.000000	88.435894 
2718.000000	88.437500 
2717.000000	88.438802 
2716.000000	88.439830 
2715.000000	88.440762 
2714.000000	88.441661 
2713.000000	88.442396 
2712.000000	88.442933 
2711.000000	88.443579 
2710.000000	88.444786 
2709.000000	88.446723 
2708.000000	88.449113 
2707.000000	88.451443 
2706.000000	88.453329 
2705.000000	88.454775 
2704.000000	88.456183 
2703.000000	88.457986 
2702.000000	88.460096 
2701.000000	88.461772 
2700.000000	88.462252 
2699.000000	88.461538 
2698.000000	88.460540 
2697.000000	88.460365 
2696.000000	88.461396 
2695.000000	88.463068 
2694.000000	88.464382 
2693.000000	88.464784 
2692.000000	88.464757 
2691.000000	88.465546 
2690.000000	88.468010 
2689.000000	88.471572 
2688.000000	88.474534 
2687.000000	88.475811 
2686.000000	88.476034 
2685.000000	88.476639 
2684.000000	88.477960 
2683.000000	88.478853 
2682.000000	88.478288 
2681.000000	88.476599 
2680.000000	88.474873 
2679.000000	88.473730 
2678.000000	88.473125 
2677.000000	88.472785 
2676.000000	88.472393 
2675.000000	88.471742 
2674.000000	88.471172 
2673.000000	88.471572 
2672.000000	88.473464 
2671.000000	88.476329 
2670.000000	88.479272 
2669.000000	88.482112 
2668.000000	88.485213 
2667.000000	88.488447 
2666.000000	88.490996 
2665.000000	88.492292 
2664.000000	88.492628 
2663.000000	88.492767 
2662.000000	88.493307 
2661.000000	88.494404 
2660.000000	88.495702 
2659.000000	88.496467 
2658.000000	88.496208 
2657.000000	88.495343 
2656.000000	88.494914 
2655.000000	88.495495 
2654.000000	88.496703 
2653.000000	88.497797 
2652.000000	88.498374 
2651.000000	88.498380 
2650.000000	88.497899 
2649.000000	88.497238 
2648.000000	88.496884 
2647.000000	88.497058 
2646.000000	88.497437 
2645.000000	88.497614 
2644.000000	88.497697 
2643.000000	88.498173 
2642.000000	88.499232 
2641.000000	88.500451 
2640.000000	88.501178 
2639.000000	88.501145 
2638.000000	88.500631 
2637.000000	88.500239 
2636.000000	88.500421 
2635.000000	88.501169 
2634.000000	88.502136 
2633.000000	88.502982 
2632.000000	88.503645 
2631.000000	88.504236 
2630.000000	88.504799 
2629.000000	88.505282 
2628.000000	88.505676 
2627.000000	88.506064 
2626.000000	88.506513 
2625.000000	88.506975 
2624.000000	88.507347 
2623.000000	88.507598 
2622.000000	88.507780 
2621.000000	88.507963 
2620.000000	88.508177 
2619.000000	88.508431 
2618.000000	88.508743 
2617.000000	88.509113 
2616.000000	88.509485 
2615.000000	88.509771 
2614.000000	88.509942 
2613.000000	88.510090 
2612.000000	88.510347 
2611.000000	88.510740 
2610.000000	88.511172 
2609.000000	88.511548 
2608.000000	88.511897 
2607.000000	88.512355 
2606.000000	88.513004 
2605.000000	88.513715 
2604.000000	88.514179 
2603.000000	88.514207 
2602.000000	88.513976 
2601.000000	88.513917 
2600.000000	88.514203 
2599.000000	88.514554 
2598.000000	88.514635 
2597.000000	88.514529 
2596.000000	88.514649 
2595.000000	88.515201 
2594.000000	88.515983 
2593.000000	88.516618 
2592.000000	88.516864 
2591.000000	88.516709 
2590.000000	88.516365 
2589.000000	88.516131 
2588.000000	88.516090 
2587.000000	88.515997 
2586.000000	88.515582 
2585.000000	88.514879 
2584.000000	88.514109 
2583.000000	88.513391 
2582.000000	88.512786 
2581.000000	88.512517 
2580.000000	88.512818 
2579.000000	88.513543 
2578.000000	88.514242 
2577.000000	88.514635 
2576.000000	88.514856 
2575.000000	88.515217 
2574.000000	88.515899 
2573.000000	88.516811 
2572.000000	88.517613 
2571.000000	88.517983 
2570.000000	88.517978 
2569.000000	88.518005 
2568.000000	88.518314 
2567.000000	88.518635 
2566.000000	88.518547 
2565.000000	88.518067 
2564.000000	88.517648 
2563.000000	88.517652 
2562.000000	88.518038 
2561.000000	88.518602 
2560.000000	88.519241 
2559.000000	88.519895 
2558.000000	88.520380 
2557.000000	88.520496 
2556.000000	88.520280 
2555.000000	88.520020 
2554.000000	88.519999 
2553.000000	88.520202 
2552.000000	88.520380 
2551.000000	88.520341 
2550.000000	88.520159 
2549.000000	88.520111 
2548.000000	88.520390 
2547.000000	88.520932 
2546.000000	88.521486 
2545.000000	88.521893 
2544.000000	88.522203 
2543.000000	88.522541 
2542.000000	88.522963 
2541.000000	88.523444 
2540.000000	88.523938 
2539.000000	88.524409 
2538.000000	88.524811 
2537.000000	88.525076 
2536.000000	88.525166 
2535.000000	88.525137 
2534.000000	88.525157 
2533.000000	88.525389 
2532.000000	88.525835 
2531.000000	88.526274 
2530.000000	88.526467 
2529.000000	88.526421 
2528.000000	88.526367 
2527.000000	88.526447 
2526.000000	88.526546 
2525.000000	88.526492 
2524.000000	88.526315 
2523.000000	88.526220 
2522.000000	88.526326 
2521.000000	88.526545 
2520.000000	88.526696 
2519.000000	88.526661 
2518.000000	88.526428 
2517.000000	88.526064 
2516.000000	88.525694 
2515.000000	88.525487 
2514.000000	88.525630 
2513.000000	88.526263 
2512.000000	88.527374 
2511.000000	88.528751 
2510.000000	88.530055 
2509.000000	88.530952 
2508.000000	88.531208 
2507.000000	88.530798 
2506.000000	88.530051 
2505.000000	88.529645 
2504.000000	88.530125 
2503.000000	88.531385 
2502.000000	88.532617 
2501.000000	88.532986 
2500.000000	88.532347 
2499.000000	88.531197 
2498.000000	88.530194 
2497.000000	88.529707 
2496.000000	88.529665 
2495.000000	88.529686 
2494.000000	88.529407 
2493.000000	88.528883 
2492.000000	88.528598 
2491.000000	88.528935 
2490.000000	88.529742 
2489.000000	88.530501 
2488.000000	88.530889 
2487.000000	88.530996 
2486.000000	88.531095 
2485.000000	88.531380 
2484.000000	88.531875 
2483.000000	88.532458 
2482.000000	88.532944 
2481.000000	88.533248 
2480.000000	88.533472 
2479.000000	88.533804 
2478.000000	88.534326 
2477.000000	88.534993 
2476.000000	88.535696 
2475.000000	88.536288 
2474.000000	88.536616 
2473.000000	88.536653 
2472.000000	88.536563 
2471.000000	88.536562 
2470.000000	88.536695 
2469.000000	88.536842 
2468.000000	88.536905 
2467.000000	88.536927 
2466.000000	88.537003 
2465.000000	88.537145 
2464.000000	88.537290 
2463.000000	88.537379 
2462.000000	88.537417 
2461.000000	88.537452 
2460.000000	88.537536 
2459.000000	88.537681 
2458.000000	88.537863 
2457.000000	88.538054 
2456.000000	88.538222 
2455.000000	88.538352 
2454.000000	88.538445 
2453.000000	88.538513 
2452.000000	88.538572 
2451.000000	88.538627 
2450.000000	88.538680 
2449.000000	88.538729 
2448.000000	88.538772 
2447.000000	88.538809 
2446.000000	88.538841 
2445.000000	88.538867 
2444.000000	88.538886 
2443.000000	88.538894 
2442.000000	88.538888 
2441.000000	88.538873 
2440.000000	88.538860 
2439.000000	88.538854 
2438.000000	88.538859 
2437.000000	88.538874 
2436.000000	88.538896 
2435.000000	88.538921 
2434.000000	88.538940 
2433.000000	88.538950 
2432.000000	88.538954 
2431.000000	88.538961 
2430.000000	88.538983 
2429.000000	88.539030 
2428.000000	88.539113 
2427.000000	88.539233 
2426.000000	88.539383 
2425.000000	88.539549 
2424.000000	88.539727 
2423.000000	88.539913 
2422.000000	88.540105 
2421.000000	88.540297 
2420.000000	88.540489 
2419.000000	88.540687 
2418.000000	88.540899 
2417.000000	88.541129 
2416.000000	88.541381 
2415.000000	88.541653 
2414.000000	88.541947 
2413.000000	88.542267 
2412.000000	88.542615 
2411.000000	88.542988 
2410.000000	88.543384 
2409.000000	88.543802 
2408.000000	88.544240 
2407.000000	88.544695 
2406.000000	88.545160 
2405.000000	88.545628 
2404.000000	88.546095 
2403.000000	88.546560 
2402.000000	88.547029 
2401.000000	88.547514 
2400.000000	88.548025 
2399.000000	88.548562 
2398.000000	88.549115 
2397.000000	88.549677 
2396.000000	88.550247 
2395.000000	88.550833 
2394.000000	88.551447 
2393.000000	88.552093 
2392.000000	88.552765 
2391.000000	88.553446 
2390.000000	88.554120 
2389.000000	88.554773 
2388.000000	88.555405 
2387.000000	88.556023 
2386.000000	88.556631 
2385.000000	88.557233 
2384.000000	88.557830 
2383.000000	88.558419 
2382.000000	88.559000 
2381.000000	88.559577 
2380.000000	88.560153 
2379.000000	88.560726 
2378.000000	88.561292 
2377.000000	88.561847 
2376.000000	88.562390 
2375.000000	88.562926 
2374.000000	88.563457 
2373.000000	88.563983 
2372.000000	88.564498 
2371.000000	88.564996 
2370.000000	88.565474 
2369.000000	88.565932 
2368.000000	88.566374 
2367.000000	88.566794 
2366.000000	88.567185 
2365.000000	88.567540 
2364.000000	88.567859 
2363.000000	88.568149 
2362.000000	88.568425 
2361.000000	88.568703 
2360.000000	88.568990 
2359.000000	88.569281 
2358.000000	88.569560 
2357.000000	88.569812 
2356.000000	88.570033 
2355.000000	88.570228 
2354.000000	88.570402 
2353.000000	88.570552 
2352.000000	88.570665 
2351.000000	88.570723 
2350.000000	88.570724 
2349.000000	88.570689 
2348.000000	88.570661 
2347.000000	88.570687 
2346.000000	88.570789 
2345.000000	88.570956 
2344.000000	88.571156 
2343.000000	88.571362 
2342.000000	88.571562 
2341.000000	88.571761 
2340.000000	88.571969 
2339.000000	88.572193 
2338.000000	88.572428 
2337.000000	88.572671 
2336.000000	88.572918 
2335.000000	88.573172 
2334.000000	88.573431 
2333.000000	88.573688 
2332.000000	88.573931 
2331.000000	88.574152 
2330.000000	88.574348 
2329.000000	88.574530 
2328.000000	88.574709 
2327.000000	88.574907 
2326.000000	88.575137 
2325.000000	88.575391 
2324.000000	88.575658 
2323.000000	88.575936 
2322.000000	88.576253 
2321.000000	88.576623 
2320.000000	88.577029 
2319.000000	88.577451 
2318.000000	88.577863 
2317.000000	88.578253 
2316.000000	88.578603 
2315.000000	88.578943 
2314.000000	88.579316 
2313.000000	88.579754 
2312.000000	88.580205 
2311.000000	88.580600 
2310.000000	88.580915 
2309.000000	88.581242 
2308.000000	88.581754 
2307.000000	88.582598 
2306.000000	88.583674 
2305.000000	88.584634 
2304.000000	88.585104 
2303.000000	88.585037 
2302.000000	88.584795 
2301.000000	88.584685 
2300.000000	88.584808 
2299.000000	88.585107 
2298.000000	88.585355 
2297.000000	88.585387 
2296.000000	88.585232 
2295.000000	88.585091 
2294.000000	88.585095 
2293.000000	88.585196 
2292.000000	88.585285 
2291.000000	88.585334 
2290.000000	88.585404 
2289.000000	88.585528 
2288.000000	88.585679 
2287.000000	88.585812 
2286.000000	88.585904 
2285.000000	88.585960 
2284.000000	88.585991 
2283.000000	88.586001 
2282.000000	88.585995 
2281.000000	88.585972 
2280.000000	88.585937 
2279.000000	88.585893 
2278.000000	88.585846 
2277.000000	88.585792 
2276.000000	88.585726 
2275.000000	88.585643 
2274.000000	88.585550 
2273.000000	88.585457 
2272.000000	88.585375 
2271.000000	88.585311 
2270.000000	88.585264 
2269.000000	88.585231 
2268.000000	88.585209 
2267.000000	88.585198 
2266.000000	88.585202 
2265.000000	88.585222 
2264.000000	88.585257 
2263.000000	88.585305 
2262.000000	88.585365 
2261.000000	88.585442 
2260.000000	88.585540 
2259.000000	88.585660 
2258.000000	88.585798 
2257.000000	88.585946 
2256.000000	88.586102 
2255.000000	88.586270 
2254.000000	88.586450 
2253.000000	88.586643 
2252.000000	88.586858 
2251.000000	88.587106 
2250.000000	88.587380 
2249.000000	88.587640 
2248.000000	88.587829 
2247.000000	88.587951 
2246.000000	88.588136 
2245.000000	88.588518 
2244.000000	88.589096 
2243.000000	88.589733 
2242.000000	88.590304 
2241.000000	88.590799 
2240.000000	88.591275 
2239.000000	88.591802 
2238.000000	88.592424 
2237.000000	88.593129 
2236.000000	88.593803 
2235.000000	88.594283 
2234.000000	88.594528 
2233.000000	88.594757 
2232.000000	88.595314 
2231.000000	88.596383 
2230.000000	88.597845 
2229.000000	88.599302 
2228.000000	88.600371 
2227.000000	88.600927 
2226.000000	88.601108 
2225.000000	88.601157 
2224.000000	88.601199 
2223.000000	88.601257 
2222.000000	88.601379 
2221.000000	88.601645 
2220.000000	88.602070 
2219.000000	88.602627 
2218.000000	88.603376 
2217.000000	88.604432 
2216.000000	88.605727 
2215.000000	88.606942 
2214.000000	88.607795 
2213.000000	88.608298 
2212.000000	88.608676 
2211.000000	88.609086 
2210.000000	88.609515 
2209.000000	88.609901 
2208.000000	88.610229 
2207.000000	88.610508 
2206.000000	88.610770 
2205.000000	88.611105 
2204.000000	88.611577 
2203.000000	88.612139 
2202.000000	88.612673 
2201.000000	88.613088 
2200.000000	88.613386 
2199.000000	88.613625 
2198.000000	88.613870 
2197.000000	88.614146 
2196.000000	88.614446 
2195.000000	88.614752 
2194.000000	88.615051 
2193.000000	88.615339 
2192.000000	88.615624 
2191.000000	88.615907 
2190.000000	88.616185 
2189.000000	88.616459 
2188.000000	88.616730 
2187.000000	88.616997 
2186.000000	88.617262 
2185.000000	88.617530 
2184.000000	88.617808 
2183.000000	88.618098 
2182.000000	88.618396 
2181.000000	88.618693 
2180.000000	88.618985 
2179.000000	88.619270 
2178.000000	88.619552 
2177.000000	88.619829 
2176.000000	88.620101 
2175.000000	88.620366 
2174.000000	88.620625 
2173.000000	88.620878 
2172.000000	88.621132 
2171.000000	88.621396 
2170.000000	88.621679 
2169.000000	88.621987 
2168.000000	88.622315 
2167.000000	88.622655 
2166.000000	88.622995 
2165.000000	88.623328 
2164.000000	88.623654 
2163.000000	88.623976 
2162.000000	88.624296 
2161.000000	88.624613 
2160.000000	88.624923 
2159.000000	88.625224 
2158.000000	88.625517 
2157.000000	88.625804 
2156.000000	88.626088 
2155.000000	88.626368 
2154.000000	88.626645 
2153.000000	88.626915 
2152.000000	88.627177 
2151.000000	88.627432 
2150.000000	88.627683 
2149.000000	88.627934 
2148.000000	88.628189 
2147.000000	88.628447 
2146.000000	88.628704 
2145.000000	88.628956 
2144.000000	88.629206 
2143.000000	88.629460 
2142.000000	88.629725 
2141.000000	88.630004 
2140.000000	88.630294 
2139.000000	88.630591 
2138.000000	88.630895 
2137.000000	88.631207 
2136.000000	88.631526 
2135.000000	88.631851 
2134.000000	88.632177 
2133.000000	88.632496 
2132.000000	88.632805 
2131.000000	88.633103 
2130.000000	88.633397 
2129.000000	88.633693 
2128.000000	88.633999 
2127.000000	88.634314 
2126.000000	88.634637 
2125.000000	88.634967 
2124.000000	88.635308 
2123.000000	88.635666 
2122.000000	88.636046 
2121.000000	88.636454 
2120.000000	88.636883 
2119.000000	88.637325 
2118.000000	88.637768 
2117.000000	88.638213 
2116.000000	88.638670 
2115.000000	88.639149 
2114.000000	88.639652 
2113.000000	88.640172 
2112.000000	88.640702 
2111.000000	88.641236 
2110.000000	88.641770 
2109.000000	88.642308 
2108.000000	88.642855 
2107.000000	88.643415 
2106.000000	88.643988 
2105.000000	88.644565 
2104.000000	88.645140 
2103.000000	88.645713 
2102.000000	88.646292 
2101.000000	88.646881 
2100.000000	88.647475 
2099.000000	88.648067 
2098.000000	88.648650 
2097.000000	88.649224 
2096.000000	88.649793 
2095.000000	88.650360 
2094.000000	88.650928 
2093.000000	88.651497 
2092.000000	88.652069 
2091.000000	88.652648 
2090.000000	88.653234 
2089.000000	88.653831 
2088.000000	88.654441 
2087.000000	88.655061 
2086.000000	88.655683 
2085.000000	88.656302 
2084.000000	88.656912 
2083.000000	88.657515 
2082.000000	88.658128 
2081.000000	88.658760 
2080.000000	88.659392 
2079.000000	88.659975 
2078.000000	88.660457 
2077.000000	88.660827 
2076.000000	88.661130 
2075.000000	88.661463 
2074.000000	88.661903 
2073.000000	88.662446 
2072.000000	88.662991 
2071.000000	88.663416 
2070.000000	88.663689 
2069.000000	88.663907 
2068.000000	88.664224 
2067.000000	88.664699 
2066.000000	88.665221 
2065.000000	88.665596 
2064.000000	88.665758 
2063.000000	88.665844 
2062.000000	88.666019 
2061.000000	88.666258 
2060.000000	88.666389 
2059.000000	88.666300 
2058.000000	88.666053 
2057.000000	88.665843 
2056.000000	88.665829 
2055.000000	88.666014 
2054.000000	88.666271 
2053.000000	88.666510 
2052.000000	88.666757 
2051.000000	88.666998 
2050.000000	88.667021 
2049.000000	88.666618 
2048.000000	88.665907 
2047.000000	88.665274 
2046.000000	88.664940 
2045.000000	88.664780 
2044.000000	88.664565 
2043.000000	88.664202 
2042.000000	88.663698 
2041.000000	88.663086 
2040.000000	88.662496 
2039.000000	88.662149 
2038.000000	88.662127 
2037.000000	88.662207 
2036.000000	88.662030 
2035.000000	88.661447 
2034.000000	88.660597 
2033.000000	88.659717 
2032.000000	88.658978 
2031.000000	88.658474 
2030.000000	88.658130 
2029.000000	88.657641 
2028.000000	88.656772 
2027.000000	88.655677 
2026.000000	88.654713 
2025.000000	88.653964 
2024.000000	88.653268 
2023.000000	88.652603 
2022.000000	88.652125 
2021.000000	88.651849 
2020.000000	88.651683 
2019.000000	88.651760 
2018.000000	88.652226 
2017.000000	88.652725 
2016.000000	88.652661 
2015.000000	88.651936 
2014.000000	88.651014 
2013.000000	88.650303 
2012.000000	88.649800 
2011.000000	88.649434 
2010.000000	88.649299 
2009.000000	88.649381 
2008.000000	88.649400 
2007.000000	88.649109 
2006.000000	88.648559 
2005.000000	88.647921 
2004.000000	88.647253 
2003.000000	88.646615 
2002.000000	88.646256 
2001.000000	88.646381 
2000.000000	88.646808 
1999.000000	88.647084 
1998.000000	88.646969 
1997.000000	88.646627 
1996.000000	88.646342 
1995.000000	88.646245 
1994.000000	88.646350 
1993.000000	88.646670 
1992.000000	88.647204 
1991.000000	88.647892 
1990.000000	88.648610 
1989.000000	88.649207 
1988.000000	88.649559 
1987.000000	88.649663 
1986.000000	88.649651 
1985.000000	88.649687 
1984.000000	88.649817 
1983.000000	88.649981 
1982.000000	88.650138 
1981.000000	88.650315 
1980.000000	88.650555 
1979.000000	88.650863 
1978.000000	88.651210 
1977.000000	88.651555 
1976.000000	88.651864 
1975.000000	88.652136 
1974.000000	88.652384 
1973.000000	88.652632 
1972.000000	88.652897 
1971.000000	88.653185 
1970.000000	88.653489 
1969.000000	88.653799 
1968.000000	88.654105 
1967.000000	88.654398 
1966.000000	88.654677 
1965.000000	88.654942 
1964.000000	88.655192 
1963.000000	88.655423 
1962.000000	88.655630 
1961.000000	88.655811 
1960.000000	88.655965 
1959.000000	88.656096 
1958.000000	88.656209 
1957.000000	88.656307 
1956.000000	88.656391 
1955.000000	88.656457 
1954.000000	88.656502 
1953.000000	88.656530 
1952.000000	88.656546 
1951.000000	88.656554 
1950.000000	88.656554 
1949.000000	88.656540 
1948.000000	88.656502 
1947.000000	88.656438 
1946.000000	88.656345 
1945.000000	88.656226 
1944.000000	88.656092 
1943.000000	88.655974 
1942.000000	88.655900 
1941.000000	88.655879 
1940.000000	88.655879 
1939.000000	88.655835 
1938.000000	88.655662 
1937.000000	88.655302 
1936.000000	88.654789 
1935.000000	88.654245 
1934.000000	88.653779 
1933.000000	88.653407 
1932.000000	88.653062 
1931.000000	88.652667 
1930.000000	88.652225 
1929.000000	88.651788 
1928.000000	88.651370 
1927.000000	88.650883 
1926.000000	88.650231 
1925.000000	88.649444 
1924.000000	88.648688 
1923.000000	88.648101 
1922.000000	88.647597 
1921.000000	88.646937 
1920.000000	88.646061 
1919.000000	88.645186 
1918.000000	88.644506 
1917.000000	88.644018 
1916.000000	88.643680 
1915.000000	88.643574 
1914.000000	88.643712 
1913.000000	88.643790 
1912.000000	88.643371 
1911.000000	88.642389 
1910.000000	88.641269 
1909.000000	88.640364 
1908.000000	88.639528 
1907.000000	88.638247 
1906.000000	88.636218 
1905.000000	88.633846 
1904.000000	88.632105 
1903.000000	88.631857 
1902.000000	88.632963 
1901.000000	88.634114 
1900.000000	88.634027 
1899.000000	88.632625 
1898.000000	88.630908 
1897.000000	88.629832 
1896.000000	88.629437 
1895.000000	88.629139 
1894.000000	88.628561 
1893.000000	88.628006 
1892.000000	88.628221 
1891.000000	88.629616 
1890.000000	88.631542 
1889.000000	88.632574 
1888.000000	88.631783 
1887.000000	88.629528 
1886.000000	88.627070 
1885.000000	88.625580 
1884.000000	88.625344 
1883.000000	88.625765 
1882.000000	88.626271 
1881.000000	88.627328 
1880.000000	88.630190 
1879.000000	88.634977 
1878.000000	88.639419 
1877.000000	88.640661 
1876.000000	88.638228 
1875.000000	88.634493 
1874.000000	88.632081 
1873.000000	88.631531 
1872.000000	88.632122 
1871.000000	88.633764 
1870.000000	88.636938 
1869.000000	88.641138 
1868.000000	88.644943 
1867.000000	88.647837 
1866.000000	88.650431 
1865.000000	88.653067 
1864.000000	88.655317 
1863.000000	88.656897 
1862.000000	88.658493 
1861.000000	88.661316 
1860.000000	88.665945 
1859.000000	88.671618 
1858.000000	88.676588 
1857.000000	88.679539 
1856.000000	88.680950 
1855.000000	88.682720 
1854.000000	88.686145 
1853.000000	88.690436 
1852.000000	88.693901 
1851.000000	88.695852 
1850.000000	88.696808 
1849.000000	88.697786 
1848.000000	88.699619 
1847.000000	88.702667 
1846.000000	88.706565 
1845.000000	88.710072 
1844.000000	88.712241 
1843.000000	88.713939 
1842.000000	88.716527 
1841.000000	88.719938 
1840.000000	88.723233 
1839.000000	88.725579 
1838.000000	88.726854 
1837.000000	88.727527 
1836.000000	88.728027 
1835.000000	88.728752 
1834.000000	88.730246 
1833.000000	88.732835 
1832.000000	88.736167 
1831.000000	88.739053 
1830.000000	88.740271 
1829.000000	88.739910 
1828.000000	88.739244 
1827.000000	88.739408 
1826.000000	88.740686 
1825.000000	88.742602 
1824.000000	88.744400 
1823.000000	88.745842 
1822.000000	88.747325 
1821.000000	88.749198 
1820.000000	88.751303 
1819.000000	88.753239 
1818.000000	88.754793 
1817.000000	88.755854 
1816.000000	88.756272 
1815.000000	88.756295 
1814.000000	88.756739 
1813.000000	88.758386 
1812.000000	88.761137 
1811.000000	88.763806 
1810.000000	88.765200 
1809.000000	88.765179 
1808.000000	88.764705 
1807.000000	88.764892 
1806.000000	88.766041 
1805.000000	88.767768 
1804.000000	88.769838 
1803.000000	88.772528 
1802.000000	88.775793 
1801.000000	88.778670 
1800.000000	88.780088 
1799.000000	88.780180 
1798.000000	88.780279 
1797.000000	88.781347 
1796.000000	88.783210 
1795.000000	88.785301 
1794.000000	88.787461 
1793.000000	88.790025 
1792.000000	88.793558 
1791.000000	88.798268 
1790.000000	88.803156 
1789.000000	88.806756 
1788.000000	88.808782 
1787.000000	88.810197 
1786.000000	88.812204 
1785.000000	88.815230 
1784.000000	88.818674 
1783.000000	88.821982 
1782.000000	88.825322 
1781.000000	88.829167 
1780.000000	88.833422 
1779.000000	88.837213 
1778.000000	88.840014 
1777.000000	88.842082 
1776.000000	88.844150 
1775.000000	88.846810 
1774.000000	88.850131 
1773.000000	88.853165 
1772.000000	88.854646 
1771.000000	88.855840 
1770.000000	88.859768 
1769.000000	88.867779 
1768.000000	88.878310 
1767.000000	88.887263 
1766.000000	88.891684 
1765.000000	88.893080 
1764.000000	88.895240 
1763.000000	88.900042 
1762.000000	88.905666 
1761.000000	88.909033 
1760.000000	88.909339 
1759.000000	88.908969 
1758.000000	88.911337 
1757.000000	88.916868 
1756.000000	88.922100 
1755.000000	88.923438 
1754.000000	88.921536 
1753.000000	88.920356 
1752.000000	88.922976 
1751.000000	88.929259 
1750.000000	88.936862 
1749.000000	88.942925 
1748.000000	88.945326 
1747.000000	88.943988 
1746.000000	88.941033 
1745.000000	88.940266 
1744.000000	88.944038 
1743.000000	88.950892 
1742.000000	88.957682 
1741.000000	88.962233 
1740.000000	88.962879 
1739.000000	88.959025 
1738.000000	88.952898 
1737.000000	88.947792 
1736.000000	88.946361 
1735.000000	88.947135 
1734.000000	88.944207 
1733.000000	88.938099 
1732.000000	88.934145 
1731.000000	88.933608 
1730.000000	88.935573 
1729.000000	88.936773 
1728.000000	88.934546 
1727.000000	88.929553 
1726.000000	88.923257 
1725.000000	88.916405 
1724.000000	88.909217 
1723.000000	88.902480 
1722.000000	88.896990 
1721.000000	88.891915 
1720.000000	88.885809 
1719.000000	88.877673 
1718.000000	88.868138 
1717.000000	88.861007 
1716.000000	88.858849 
1715.000000	88.858732 
1714.000000	88.856608 
1713.000000	88.851080 
1712.000000	88.843711 
1711.000000	88.837548 
1710.000000	88.833679 
1709.000000	88.830703 
1708.000000	88.828055 
1707.000000	88.826726 
1706.000000	88.826374 
1705.000000	88.824950 
1704.000000	88.823156 
1703.000000	88.824797 
1702.000000	88.832496 
1701.000000	88.840128 
1700.000000	88.836344 
1699.000000	88.826899 
1698.000000	88.824620 
1697.000000	88.831106 
1696.000000	88.840100 
1695.000000	88.844324 
1694.000000	88.844369 
1693.000000	88.843257 
1692.000000	88.842790 
1691.000000	88.844553 
1690.000000	88.849658 
1689.000000	88.857653 
1688.000000	88.865479 
1687.000000	88.869769 
1686.000000	88.871145 
1685.000000	88.872258 
1684.000000	88.875223 
1683.000000	88.883414 
1682.000000	88.894034 
1681.000000	88.901794 
1680.000000	88.907059 
1679.000000	88.910287 
1678.000000	88.912903 
1677.000000	88.918662 
1676.000000	88.928235 
1675.000000	88.936646 
1674.000000	88.940603 
1673.000000	88.942790 
1672.000000	88.945400 
1671.000000	88.946248 
1670.000000	88.942320 
1669.000000	88.937858 
1668.000000	88.941059 
1667.000000	88.951566 
1666.000000	88.964132 
1665.000000	88.976782 
1664.000000	88.988456 
1663.000000	88.996054 
1662.000000	88.998068 
1661.000000	88.997996 
1660.000000	88.999158 
1659.000000	88.999995 
1658.000000	88.997056 
1657.000000	88.990449 
1656.000000	88.983944 
1655.000000	88.980051 
1654.000000	88.975301 
1653.000000	88.964945 
1652.000000	88.960098 
1651.000000	88.964005 
1650.000000	88.964650 
1649.000000	88.962490 
1648.000000	88.959721 
1647.000000	88.954695 
1646.000000	88.948752 
1645.000000	88.945592 
1644.000000	88.944069 
1643.000000	88.942162 
1642.000000	88.938514 
1641.000000	88.931660 
1640.000000	88.923486 
1639.000000	88.917872 
1638.000000	88.916911 
1637.000000	88.918346 
1636.000000	88.917935 
1635.000000	88.917053 
1634.000000	88.920103 
1633.000000	88.924082 
1632.000000	88.926069 
1631.000000	88.929344 
1630.000000	88.935934 
1629.000000	88.943967 
1628.000000	88.951145 
1627.000000	88.958514 
1626.000000	88.967521 
1625.000000	88.976683 
1624.000000	88.982588 
1623.000000	88.984026 
1622.000000	88.984926 
1621.000000	88.989515 
1620.000000	88.999051 
1619.000000	89.013818 
1618.000000	89.032222 
1617.000000	89.048592 
1616.000000	89.060772 
1615.000000	89.073226 
1614.000000	89.086150 
1613.000000	89.096303 
1612.000000	89.102726 
1611.000000	89.107098 
1610.000000	89.112683 
1609.000000	89.121904 
1608.000000	89.134464 
1607.000000	89.148625 
1606.000000	89.163365 
1605.000000	89.178685 
1604.000000	89.193754 
1603.000000	89.205801 
1602.000000	89.213410 
1601.000000	89.218645 
1600.000000	89.224589 
1599.000000	89.232253 
1598.000000	89.240111 
1597.000000	89.245488 
1596.000000	89.246007 
1595.000000	89.241695 
1594.000000	89.236100 
1593.000000	89.233697 
1592.000000	89.235813 
1591.000000	89.240001 
1590.000000	89.243161 
1589.000000	89.244296 
1588.000000	89.244231 
1587.000000	89.243880 
1586.000000	89.243790 
1585.000000	89.243926 
1584.000000	89.243710 
1583.000000	89.241581 
1582.000000	89.236625 
1581.000000	89.230872 
1580.000000	89.227574 
1579.000000	89.227573 
1578.000000	89.227851 
1577.000000	89.222126 
1576.000000	89.206551 
1575.000000	89.189249 
1574.000000	89.179705 
1573.000000	89.177282 
1572.000000	89.178286 
1571.000000	89.178236 
1570.000000	89.173455 
1569.000000	89.166258 
1568.000000	89.161423 
1567.000000	89.157196 
1566.000000	89.149966 
1565.000000	89.139872 
1564.000000	89.129605 
1563.000000	89.121780 
1562.000000	89.117971 
1561.000000	89.119295 
1560.000000	89.122746 
1559.000000	89.116581 
1558.000000	89.103784 
1557.000000	89.098514 
1556.000000	89.098760 
1555.000000	89.102366 
1554.000000	89.104907 
1553.000000	89.101577 
1552.000000	89.094068 
1551.000000	89.088177 
1550.000000	89.087930 
1549.000000	89.090996 
1548.000000	89.092458 
1547.000000	89.091369 
1546.000000	89.090651 
1545.000000	89.093903 
1544.000000	89.103245 
1543.000000	89.118159 
1542.000000	89.135941 
1541.000000	89.149737 
1540.000000	89.149494 
1539.000000	89.137044 
1538.000000	89.123360 
1537.000000	89.110166 
1536.000000	89.095518 
1535.000000	89.078160 
1534.000000	89.057418 
1533.000000	89.037802 
1532.000000	89.024274 
1531.000000	89.013890 
1530.000000	89.002730 
1529.000000	88.991566 
1528.000000	88.983563 
1527.000000	88.980871 
1526.000000	88.981672 
1525.000000	88.981626 
1524.000000	88.978733 
1523.000000	88.974609 
1522.000000	88.971268 
1521.000000	88.969016 
1520.000000	88.965619 
1519.000000	88.958049 
1518.000000	88.948392 
1517.000000	88.942587 
1516.000000	88.943329 
1515.000000	88.947373 
1514.000000	88.950020 
1513.000000	88.949958 
1512.000000	88.947179 
1511.000000	88.941877 
1510.000000	88.935796 
1509.000000	88.932533 
1508.000000	88.937395 
1507.000000	88.951828 
1506.000000	88.965402 
1505.000000	88.966674 
1504.000000	88.957697 
1503.000000	88.946801 
1502.000000	88.940537 
1501.000000	88.940521 
1500.000000	88.944023 
1499.000000	88.946731 
1498.000000	88.946486 
1497.000000	88.944331 
1496.000000	88.942783 
1495.000000	88.943303 
1494.000000	88.944948 
1493.000000	88.946535 
1492.000000	88.948488 
1491.000000	88.952772 
1490.000000	88.961600 
1489.000000	88.973028 
1488.000000	88.980475 
1487.000000	88.980414 
1486.000000	88.975386 
1485.000000	88.969308 
1484.000000	88.965679 
1483.000000	88.967149 
1482.000000	88.974337 
1481.000000	88.984378 
1480.000000	88.992600 
1479.000000	88.998123 
1478.000000	89.004684 
1477.000000	89.015820 
1476.000000	89.030495 
1475.000000	89.045521 
1474.000000	89.059904 
1473.000000	89.075251 
1472.000000	89.091531 
1471.000000	89.104790 
1470.000000	89.112278 
1469.000000	89.116442 
1468.000000	89.122067 
1467.000000	89.131837 
1466.000000	89.144145 
1465.000000	89.153445 
1464.000000	89.155197 
1463.000000	89.149098 
1462.000000	89.137396 
1461.000000	89.122756 
1460.000000	89.107966 
1459.000000	89.096616 
1458.000000	89.091778 
1457.000000	89.091793 
1456.000000	89.088347 
1455.000000	89.075515 
1454.000000	89.058095 
1453.000000	89.044830 
1452.000000	89.037395 
1451.000000	89.032217 
1450.000000	89.027664 
1449.000000	89.026055 
1448.000000	89.029421 
1447.000000	89.035849 
1446.000000	89.040350 
1445.000000	89.039467 
1444.000000	89.033272 
1443.000000	89.024491 
1442.000000	89.017588 
1441.000000	89.014893 
1440.000000	89.015041 
1439.000000	89.015961 
1438.000000	89.018244 
1437.000000	89.023291 
1436.000000	89.028056 
1435.000000	89.026210 
1434.000000	89.017243 
1433.000000	89.006780 
1432.000000	88.998849 
1431.000000	88.993511 
1430.000000	88.989567 
1429.000000	88.986431 
1428.000000	88.983366 
1427.000000	88.979756 
1426.000000	88.975846 
1425.000000	88.972276 
1424.000000	88.968382 
1423.000000	88.962068 
1422.000000	88.952653 
1421.000000	88.942050 
1420.000000	88.933426 
1419.000000	88.928889 
1418.000000	88.926414 
1417.000000	88.920557 
1416.000000	88.908889 
1415.000000	88.893424 
1414.000000	88.876912 
1413.000000	88.861244 
1412.000000	88.847544 
1411.000000	88.836095 
1410.000000	88.825860 
1409.000000	88.815167 
1408.000000	88.803875 
1407.000000	88.794732 
1406.000000	88.791757 
1405.000000	88.797326 
1404.000000	88.809691 
1403.000000	88.823278 
1402.000000	88.833789 
1401.000000	88.841676 
1400.000000	88.849922 
1399.000000	88.858296 
1398.000000	88.859795 
1397.000000	88.845921 
1396.000000	88.816573 
1395.000000	88.785921 
1394.000000	88.773807 
1393.000000	88.786545 
1392.000000	88.813568 
1391.000000	88.839819 
1390.000000	88.856261 
1389.000000	88.861459 
1388.000000	88.858799 
1387.000000	88.853085 
1386.000000	88.847243 
1385.000000	88.842020 
1384.000000	88.838440 
1383.000000	88.837929 
1382.000000	88.840743 
1381.000000	88.845690 
1380.000000	88.851774 
1379.000000	88.859341 
1378.000000	88.869236 
1377.000000	88.881715 
1376.000000	88.896433 
1375.000000	88.912709 
1374.000000	88.929373 
1373.000000	88.945113 
1372.000000	88.959705 
1371.000000	88.975035 
1370.000000	88.993524 
1369.000000	89.014978 
1368.000000	89.035660 
1367.000000	89.051438 
1366.000000	89.061918 
1365.000000	89.070678 
1364.000000	89.082106 
1363.000000	89.098129 
1362.000000	89.116502 
1361.000000	89.132007 
1360.000000	89.140718 
1359.000000	89.143079 
1358.000000	89.143710 
1357.000000	89.148722 
1356.000000	89.161111 
1355.000000	89.177543 
1354.000000	89.190989 
1353.000000	89.197740 
1352.000000	89.200156 
1351.000000	89.202360 
1350.000000	89.205693 
1349.000000	89.208307 
1348.000000	89.208219 
1347.000000	89.206004 
1346.000000	89.203517 
1345.000000	89.200850 
1344.000000	89.196610 
1343.000000	89.191001 
1342.000000	89.186748 
1341.000000	89.186176 
1340.000000	89.188567 
1339.000000	89.191483 
1338.000000	89.194158 
1337.000000	89.198004 
1336.000000	89.203564 
1335.000000	89.208594 
1334.000000	89.210273 
1333.000000	89.208634 
1332.000000	89.206883 
1331.000000	89.208475 
1330.000000	89.214124 
1329.000000	89.221258 
1328.000000	89.226054 
1327.000000	89.226259 
1326.000000	89.222848 
1325.000000	89.219425 
1324.000000	89.219929 
1323.000000	89.226000 
1322.000000	89.235265 
1321.000000	89.242419 
1320.000000	89.243530 
1319.000000	89.239783 
1318.000000	89.236064 
1317.000000	89.235616 
1316.000000	89.237750 
1315.000000	89.240715 
1314.000000	89.243990 
1313.000000	89.246850 
1312.000000	89.247298 
1311.000000	89.244608 
1310.000000	89.241439 
1309.000000	89.240992 
1308.000000	89.242822 
1307.000000	89.243647 
1306.000000	89.241786 
1305.000000	89.238854 
1304.000000	89.237435 
1303.000000	89.238855 
1302.000000	89.242788 
1301.000000	89.247106 
1300.000000	89.248434 
1299.000000	89.245025 
1298.000000	89.239274 
1297.000000	89.235757 
1296.000000	89.236592 
1295.000000	89.240105 
1294.000000	89.243657 
1293.000000	89.245581 
1292.000000	89.244660 
1291.000000	89.240519 
1290.000000	89.235177 
1289.000000	89.231672 
1288.000000	89.229926 
1287.000000	89.226255 
1286.000000	89.218472 
1285.000000	89.209325 
1284.000000	89.203385 
1283.000000	89.202161 
1282.000000	89.203443 
1281.000000	89.204019 
1280.000000	89.201378 
1279.000000	89.193924 
1278.000000	89.181877 
1277.000000	89.168202 
1276.000000	89.156796 
1275.000000	89.149150 
1274.000000	89.143853 
1273.000000	89.139318 
1272.000000	89.135603 
1271.000000	89.133025 
1270.000000	89.130225 
1269.000000	89.124865 
1268.000000	89.116027 
1267.000000	89.105174 
1266.000000	89.094674 
1265.000000	89.085335 
1264.000000	89.075255 
1263.000000	89.061426 
1262.000000	89.043102 
1261.000000	89.023257 
1260.000000	89.005250 
1259.000000	88.987646 
1258.000000	88.964463 
1257.000000	88.932354 
1256.000000	88.896255 
1255.000000	88.865457 
1254.000000	88.844111 
1253.000000	88.828133 
1252.000000	88.811832 
1251.000000	88.794603 
1250.000000	88.779774 
1249.000000	88.769947 
1248.000000	88.765907 
1247.000000	88.767032 
1246.000000	88.768449 
1245.000000	88.759723 
1244.000000	88.732826 
1243.000000	88.693926 
1242.000000	88.662995 
1241.000000	88.656566 
1240.000000	88.671527 
1239.000000	88.688020 
1238.000000	88.687923 
1237.000000	88.668296 
1236.000000	88.637869 
1235.000000	88.605735 
1234.000000	88.575882 
1233.000000	88.549322 
1232.000000	88.526008 
1231.000000	88.503305 
1230.000000	88.476299 
1229.000000	88.443066 
1228.000000	88.408671 
1227.000000	88.381018 
1226.000000	88.362286 
1225.000000	88.346584 
1224.000000	88.326552 
1223.000000	88.299931 
1222.000000	88.268762 
1221.000000	88.234857 
1220.000000	88.198603 
1219.000000	88.160772 
1218.000000	88.122184 
1217.000000	88.081228 
1216.000000	88.034343 
1215.000000	87.980292 
1214.000000	87.922569 
1213.000000	87.865941 
1212.000000	87.810911 
1211.000000	87.753092 
1210.000000	87.688672 
1209.000000	87.619782 
1208.000000	87.553033 
1207.000000	87.491866 
1206.000000	87.431737 
1205.000000	87.365144 
1204.000000	87.290733 
1203.000000	87.214831 
1202.000000	87.143829 
1201.000000	87.077629 
1200.000000	87.011510 
1199.000000	86.941810 
1198.000000	86.868107 
1197.000000	86.791442 
1196.000000	86.712571 
1195.000000	86.631953 
1194.000000	86.550516 
1193.000000	86.470121 
1192.000000	86.392466 
1191.000000	86.316363 
1190.000000	86.237271 
1189.000000	86.152006 
1188.000000	86.063255 
1187.000000	85.976653 
1186.000000	85.893768 
1185.000000	85.811057 
1184.000000	85.725203 
1183.000000	85.635431 
1182.000000	85.540659 
1181.000000	85.439264 
1180.000000	85.333045 
1179.000000	85.226976 
1178.000000	85.122646 
1177.000000	85.015186 
1176.000000	84.898710 
1175.000000	84.772315 
1174.000000	84.639937 
1173.000000	84.507319 
1172.000000	84.379384 
1171.000000	84.256194 
1170.000000	84.130598 
1169.000000	83.995094 
1168.000000	83.853270 
1167.000000	83.720144 
1166.000000	83.609664 
1165.000000	83.526723 
1164.000000	83.472236 
1163.000000	83.448928 
1162.000000	83.458518 
1161.000000	83.497769 
1160.000000	83.559028 
1159.000000	83.629075 
1158.000000	83.686362 
1157.000000	83.707477 
1156.000000	83.681782 
1155.000000	83.617273 
1154.000000	83.530064 
1153.000000	83.430898 
1152.000000	83.323825 
1151.000000	83.212703 
1150.000000	83.102628 
1149.000000	82.996282 
1148.000000	82.893075 
1147.000000	82.791283 
1146.000000	82.688755 
1145.000000	82.582758 
1144.000000	82.471158 
1143.000000	82.353665 
1142.000000	82.232441 
1141.000000	82.112789 
1140.000000	82.000957 
1139.000000	81.897139 
1138.000000	81.792295 
1137.000000	81.677309 
1136.000000	81.554188 
1135.000000	81.432226 
1134.000000	81.314037 
1133.000000	81.192994 
1132.000000	81.065112 
1131.000000	80.935253 
1130.000000	80.809094 
1129.000000	80.685778 
1128.000000	80.561504 
1127.000000	80.434810 
1126.000000	80.305880 
1125.000000	80.175273 
1124.000000	80.044391 
1123.000000	79.912803 
1122.000000	79.775845 
1121.000000	79.630207 
1120.000000	79.480197 
1119.000000	79.331791 
1118.000000	79.183261 
1117.000000	79.030678 
1116.000000	78.879583 
1115.000000	78.739465 
1114.000000	78.607503 
1113.000000	78.470107 
1112.000000	78.320784 
1111.000000	78.164221 
1110.000000	78.003176 
1109.000000	77.835343 
1108.000000	77.664846 
1107.000000	77.502411 
1106.000000	77.350528 
1105.000000	77.200913 
1104.000000	77.049080 
1103.000000	76.898455 
1102.000000	76.747704 
1101.000000	76.588111 
1100.000000	76.417884 
1099.000000	76.246388 
1098.000000	76.080005 
1097.000000	75.916322 
1096.000000	75.754986 
1095.000000	75.600469 
1094.000000	75.449403 
1093.000000	75.289007 
1092.000000	75.114617 
1091.000000	74.937998 
1090.000000	74.773732 
1089.000000	74.627531 
1088.000000	74.499475 
1087.000000	74.385433 
1086.000000	74.273034 
1085.000000	74.150910 
1084.000000	74.025138 
1083.000000	73.912344 
1082.000000	73.814160 
1081.000000	73.714243 
1080.000000	73.603962 
1079.000000	73.494297 
1078.000000	73.397553 
1077.000000	73.313783 
1076.000000	73.240484 
1075.000000	73.178249 
1074.000000	73.119652 
1073.000000	73.048203 
1072.000000	72.954433 
1071.000000	72.837815 
1070.000000	72.689091 
1069.000000	72.490727 
1068.000000	72.244685 
1067.000000	71.984175 
1066.000000	71.745724 
1065.000000	71.539224 
1064.000000	71.352754 
1063.000000	71.169896 
1062.000000	70.971185 
1061.000000	70.735372 
1060.000000	70.456376 
1059.000000	70.153726 
1058.000000	69.857111 
1057.000000	69.585727 
1056.000000	69.345564 
1055.000000	69.133257 
1054.000000	68.934769 
1053.000000	68.732710 
1052.000000	68.524238 
1051.000000	68.322690 
1050.000000	68.136679 
1049.000000	67.960312 
1048.000000	67.787581 
1047.000000	67.620465 
1046.000000	67.459359 
1045.000000	67.301249 
1044.000000	67.149386 
1043.000000	67.009307 
1042.000000	66.873322 
1041.000000	66.723965 
1040.000000	66.555863 
1039.000000	66.381553 
1038.000000	66.215855 
1037.000000	66.068487 
1036.000000	65.949280 
1035.000000	65.861984 
1034.000000	65.792141 
1033.000000	65.717841 
1032.000000	65.631972 
1031.000000	65.538869 
1030.000000	65.436789 
1029.000000	65.326798 
1028.000000	65.232942 
1027.000000	65.184328 
1026.000000	65.175309 
1025.000000	65.168844 
1024.000000	65.142221 
1023.000000	65.104428 
1022.000000	65.066737 
1021.000000	65.025326 
1020.000000	64.978963 
1019.000000	64.936581 
1018.000000	64.898236 
1017.000000	64.851772 
1016.000000	64.796130 
1015.000000	64.745841 
1014.000000	64.705627 
1013.000000	64.662916 
1012.000000	64.612513 
1011.000000	64.566587 
1010.000000	64.532663 
1009.000000	64.502987 
1008.000000	64.473148 
1007.000000	64.450856 
1006.000000	64.439029 
1005.000000	64.430010 
1004.000000	64.423469 
1003.000000	64.431054 
1002.000000	64.457130 
1001.000000	64.492922 
1000.000000	64.533816 
999.000000	 64.583377 
998.000000	 64.637095 
997.000000	 64.683426 
996.000000	 64.725737 
995.000000	 64.782190 
994.000000	 64.858663 
993.000000	 64.941919 
992.000000	 65.023655 
991.000000	 65.109946 
990.000000	 65.201875 
989.000000	 65.289717 
988.000000	 65.374160 
987.000000	 65.472025 
986.000000	 65.591785 
985.000000	 65.722137 
984.000000	 65.852769 
983.000000	 65.989070 
982.000000	 66.139322 
981.000000	 66.304418 
980.000000	 66.486859 
979.000000	 66.692688 
978.000000	 66.916825 
977.000000	 67.142494 
976.000000	 67.362726 
975.000000	 67.589073 
974.000000	 67.834187 
973.000000	 68.099218 
972.000000	 68.381060 
971.000000	 68.676947 
970.000000	 68.978414 
969.000000	 69.275366 
968.000000	 69.569664 
967.000000	 69.871571 
966.000000	 70.180997 
965.000000	 70.485703 
964.000000	 70.778982 
963.000000	 71.065000 
962.000000	 71.346171 
961.000000	 71.620160 
960.000000	 71.890233 
959.000000	 72.163090 
958.000000	 72.434049 
957.000000	 72.688674 
956.000000	 72.921477 
955.000000	 73.140299 
954.000000	 73.351806 
953.000000	 73.556173 
952.000000	 73.755892 
951.000000	 73.954386 
950.000000	 74.144591 
949.000000	 74.314205 
948.000000	 74.464143 
947.000000	 74.607204 
946.000000	 74.746894 
945.000000	 74.873000 
944.000000	 74.980492 
943.000000	 75.076994 
942.000000	 75.168650 
941.000000	 75.254682 
940.000000	 75.340133 
939.000000	 75.436909 
938.000000	 75.545080 
937.000000	 75.648098 
936.000000	 75.734533 
935.000000	 75.812075 
934.000000	 75.893696 
933.000000	 75.982227 
932.000000	 76.075061 
931.000000	 76.171572 
930.000000	 76.268245 
929.000000	 76.357297 
928.000000	 76.437733 
927.000000	 76.519267 
926.000000	 76.609558 
925.000000	 76.705255 
924.000000	 76.798837 
923.000000	 76.885139 
922.000000	 76.958921 
921.000000	 77.017041 
920.000000	 77.066389 
919.000000	 77.118764 
918.000000	 77.174337 
917.000000	 77.221176 
916.000000	 77.254947 
915.000000	 77.287852 
914.000000	 77.334261 
913.000000	 77.399700 
912.000000	 77.488193 
911.000000	 77.606201 
910.000000	 77.751263 
909.000000	 77.908522 
908.000000	 78.067805 
907.000000	 78.235991 
906.000000	 78.425322 
905.000000	 78.637503 
904.000000	 78.865508 
903.000000	 79.103344 
902.000000	 79.347528 
901.000000	 79.594187 
900.000000	 79.839853 
899.000000	 80.082430 
898.000000	 80.319979 
897.000000	 80.551631 
896.000000	 80.778338 
895.000000	 80.997952 
894.000000	 81.202788 
893.000000	 81.389362 
892.000000	 81.567385 
891.000000	 81.749505 
890.000000	 81.933467 
889.000000	 82.104573 
888.000000	 82.255475 
887.000000	 82.393077 
886.000000	 82.525656 
885.000000	 82.654721 
884.000000	 82.782345 
883.000000	 82.915741 
882.000000	 83.060390 
881.000000	 83.217484 
880.000000	 83.391015 
879.000000	 83.586950 
878.000000	 83.800913 
877.000000	 84.016384 
876.000000	 84.220142 
875.000000	 84.412082 
874.000000	 84.597547 
873.000000	 84.779371 
872.000000	 84.960974 
871.000000	 85.147904 
870.000000	 85.341065 
869.000000	 85.535038 
868.000000	 85.726313 
867.000000	 85.916504 
866.000000	 86.105337 
865.000000	 86.288369 
864.000000	 86.464994 
863.000000	 86.641114 
862.000000	 86.819165 
861.000000	 86.991897 
860.000000	 87.151727 
859.000000	 87.301615 
858.000000	 87.451410 
857.000000	 87.606524 
856.000000	 87.763745 
855.000000	 87.914336 
854.000000	 88.047571 
853.000000	 88.155958 
852.000000	 88.242708 
851.000000	 88.322315 
850.000000	 88.409265 
849.000000	 88.506246 
848.000000	 88.603967 
847.000000	 88.688142 
846.000000	 88.745317 
845.000000	 88.769948 
844.000000	 88.772302 
843.000000	 88.773428 
842.000000	 88.782617 
841.000000	 88.782513 
840.000000	 88.746501 
839.000000	 88.670531 
838.000000	 88.579392 
837.000000	 88.500880 
836.000000	 88.442156 
835.000000	 88.392626 
834.000000	 88.340162 
833.000000	 88.280557 
832.000000	 88.219395 
831.000000	 88.171070 
830.000000	 88.150661 
829.000000	 88.159707 
828.000000	 88.181734 
827.000000	 88.196658 
826.000000	 88.199134 
825.000000	 88.199785 
824.000000	 88.210480 
823.000000	 88.232777 
822.000000	 88.258660 
821.000000	 88.276531 
820.000000	 88.276271 
819.000000	 88.253731 
818.000000	 88.212217 
817.000000	 88.156650 
816.000000	 88.085171 
815.000000	 87.988708 
814.000000	 87.858380 
813.000000	 87.689031 
812.000000	 87.474084 
811.000000	 87.201455 
810.000000	 86.858740 
809.000000	 86.440876 
808.000000	 85.950590 
807.000000	 85.395069 
806.000000	 84.787842 
805.000000	 84.153772 
804.000000	 83.525563 
803.000000	 82.929449 
802.000000	 82.376609 
801.000000	 81.874764 
800.000000	 81.444437 
799.000000	 81.112813 
798.000000	 80.892644 
797.000000	 80.778320 
796.000000	 80.759574 
795.000000	 80.822692 
794.000000	 80.938194 
793.000000	 81.066664 
792.000000	 81.184384 
791.000000	 81.291543 
790.000000	 81.390963 
789.000000	 81.469828 
788.000000	 81.506312 
787.000000	 81.484244 
786.000000	 81.397566 
785.000000	 81.250307 
784.000000	 81.058158 
783.000000	 80.843634 
782.000000	 80.625279 
781.000000	 80.416730 
780.000000	 80.236547 
779.000000	 80.108719 
778.000000	 80.050263 
777.000000	 80.066941 
776.000000	 80.160999 
775.000000	 80.329886 
774.000000	 80.555309 
773.000000	 80.807983 
772.000000	 81.068301 
771.000000	 81.331368 
770.000000	 81.589477 
769.000000	 81.824292 
768.000000	 82.023514 
767.000000	 82.194075 
766.000000	 82.350529 
765.000000	 82.498343 
764.000000	 82.636178 
763.000000	 82.766765 
762.000000	 82.895439 
761.000000	 83.021191 
760.000000	 83.137505 
759.000000	 83.242107 
758.000000	 83.342007 
757.000000	 83.449705 
756.000000	 83.575425 
755.000000	 83.718929 
754.000000	 83.866458 
753.000000	 84.000056 
752.000000	 84.113259 
751.000000	 84.215044 
750.000000	 84.317245 
749.000000	 84.422925 
748.000000	 84.529998 
747.000000	 84.641119 
746.000000	 84.763764 
745.000000	 84.901462 
744.000000	 85.049978 
743.000000	 85.204178 
742.000000	 85.366439 
741.000000	 85.544475 
740.000000	 85.738353 
739.000000	 85.931550 
738.000000	 86.100714 
737.000000	 86.236964 
736.000000	 86.353500 
735.000000	 86.469627 
734.000000	 86.591695 
733.000000	 86.712599 
732.000000	 86.823192 
731.000000	 86.917153 
730.000000	 86.989303 
729.000000	 87.038706 
728.000000	 87.074848 
727.000000	 87.112607 
726.000000	 87.157460 
725.000000	 87.202722 
724.000000	 87.243907 
723.000000	 87.288893 
722.000000	 87.350201 
721.000000	 87.431036 
720.000000	 87.520995 
719.000000	 87.601820 
718.000000	 87.657674 
717.000000	 87.686943 
716.000000	 87.706839 
715.000000	 87.740750 
714.000000	 87.795379 
713.000000	 87.852430 
712.000000	 87.885426 
711.000000	 87.880620 
710.000000	 87.841737 
709.000000	 87.783451 
708.000000	 87.726194 
707.000000	 87.688542 
706.000000	 87.669834 
705.000000	 87.641610 
704.000000	 87.565931 
703.000000	 87.421912 
702.000000	 87.211426 
701.000000	 86.942733 
700.000000	 86.617491 
699.000000	 86.238385 
698.000000	 85.824985 
697.000000	 85.422310 
696.000000	 85.094630 
695.000000	 84.901221 
694.000000	 84.869467 
693.000000	 84.983359 
692.000000	 85.193132 
691.000000	 85.441597 
690.000000	 85.688962 
689.000000	 85.920225 
688.000000	 86.133841 
687.000000	 86.326953 
686.000000	 86.496448 
685.000000	 86.648643 
684.000000	 86.797235 
683.000000	 86.948898 
682.000000	 87.093251 
681.000000	 87.211970 
680.000000	 87.300201 
679.000000	 87.378762 
678.000000	 87.478332 
677.000000	 87.606091 
676.000000	 87.740063 
675.000000	 87.859103 
674.000000	 87.966786 
673.000000	 88.079428 
672.000000	 88.202860 
671.000000	 88.332782 
670.000000	 88.466637 
669.000000	 88.602022 
668.000000	 88.699722 
667.000000	 88.731386 
666.000000	 88.741094 
665.000000	 88.764010 
664.000000	 88.805424 
663.000000	 88.866786 
662.000000	 88.938590 
661.000000	 89.010930 
660.000000	 89.080740 
659.000000	 89.148545 
658.000000	 89.202156 
657.000000	 89.222697 
656.000000	 89.214522 
655.000000	 89.210187 
654.000000	 89.227961 
653.000000	 89.245998 
652.000000	 89.239373 
651.000000	 89.222860 
650.000000	 89.233470 

