PE IR                   SPECTRUM    ASCII       PEDS        1.60        
  -1
~SP.SP
22/12/06
12:00:20.00
23/01/09
14:37:21.00
Administrator

650.000000
4









FRONTIER FT-IR,CPU32 MAIN 00.09.9951 07-SEPTEMBER-2011 11:49:41
MIR TGS
MIR
OPTKBR
90694
0.200000

4.000000
STRONG
RATIO
SPECTRUM
MAGNITUDE
MIRACLE ATR
DOUBLE

COMBINED


0


#HDR
-1
-1
#GR
CM-1
%T
0.00002384185791015625
0.0
4000.000000
-1.000000
3351
8
94.751946
58.106013
#DATA
4000.000000	94.739575 
3999.000000	94.737427 
3998.000000	94.735255 
3997.000000	94.734040 
3996.000000	94.734374 
3995.000000	94.736220 
3994.000000	94.738516 
3993.000000	94.739912 
3992.000000	94.739879 
3991.000000	94.738871 
3990.000000	94.737904 
3989.000000	94.737637 
3988.000000	94.737970 
3987.000000	94.738442 
3986.000000	94.738735 
3985.000000	94.738685 
3984.000000	94.738013 
3983.000000	94.736437 
3982.000000	94.734123 
3981.000000	94.731801 
3980.000000	94.730297 
3979.000000	94.729955 
3978.000000	94.730455 
3977.000000	94.730982 
3976.000000	94.730621 
3975.000000	94.728822 
3974.000000	94.725775 
3973.000000	94.722505 
3972.000000	94.720340 
3971.000000	94.720096 
3970.000000	94.721714 
3969.000000	94.724430 
3968.000000	94.727249 
3967.000000	94.729381 
3966.000000	94.730409 
3965.000000	94.730254 
3964.000000	94.729046 
3963.000000	94.726976 
3962.000000	94.724291 
3961.000000	94.721434 
3960.000000	94.719024 
3959.000000	94.717668 
3958.000000	94.717653 
3957.000000	94.718666 
3956.000000	94.719855 
3955.000000	94.720323 
3954.000000	94.719810 
3953.000000	94.718880 
3952.000000	94.718363 
3951.000000	94.718557 
3950.000000	94.718971 
3949.000000	94.718799 
3948.000000	94.717540 
3947.000000	94.715189 
3946.000000	94.712260 
3945.000000	94.709634 
3944.000000	94.707843 
3943.000000	94.706666 
3942.000000	94.705444 
3941.000000	94.703896 
3940.000000	94.702476 
3939.000000	94.701807 
3938.000000	94.701991 
3937.000000	94.702531 
3936.000000	94.702791 
3935.000000	94.702394 
3934.000000	94.701452 
3933.000000	94.700440 
3932.000000	94.699762 
3931.000000	94.699428 
3930.000000	94.699204 
3929.000000	94.698988 
3928.000000	94.698775 
3927.000000	94.698389 
3926.000000	94.697458 
3925.000000	94.695760 
3924.000000	94.693536 
3923.000000	94.691267 
3922.000000	94.689152 
3921.000000	94.687086 
3920.000000	94.685502 
3919.000000	94.685591 
3918.000000	94.687718 
3917.000000	94.690152 
3916.000000	94.690537 
3915.000000	94.688598 
3914.000000	94.686514 
3913.000000	94.686682 
3912.000000	94.689501 
3911.000000	94.693115 
3910.000000	94.694767 
3909.000000	94.692781 
3908.000000	94.687966 
3907.000000	94.683077 
3906.000000	94.680238 
3905.000000	94.678321 
3904.000000	94.673638 
3903.000000	94.664039 
3902.000000	94.651998 
3901.000000	94.642861 
3900.000000	94.639775 
3899.000000	94.641833 
3898.000000	94.646038 
3897.000000	94.650026 
3896.000000	94.652740 
3895.000000	94.654169 
3894.000000	94.655393 
3893.000000	94.657519 
3892.000000	94.659799 
3891.000000	94.659931 
3890.000000	94.657114 
3889.000000	94.653360 
3888.000000	94.651046 
3887.000000	94.649799 
3886.000000	94.647332 
3885.000000	94.642688 
3884.000000	94.637912 
3883.000000	94.636356 
3882.000000	94.639077 
3881.000000	94.643589 
3880.000000	94.646300 
3879.000000	94.645812 
3878.000000	94.643756 
3877.000000	94.642781 
3876.000000	94.643742 
3875.000000	94.645156 
3874.000000	94.644825 
3873.000000	94.641965 
3872.000000	94.638188 
3871.000000	94.635466 
3870.000000	94.633398 
3869.000000	94.630823 
3868.000000	94.629151 
3867.000000	94.630620 
3866.000000	94.633921 
3865.000000	94.635533 
3864.000000	94.635050 
3863.000000	94.634897 
3862.000000	94.636197 
3861.000000	94.637960 
3860.000000	94.639269 
3859.000000	94.640856 
3858.000000	94.643899 
3857.000000	94.648330 
3856.000000	94.653362 
3855.000000	94.657832 
3854.000000	94.659935 
3853.000000	94.659055 
3852.000000	94.658090 
3851.000000	94.661057 
3850.000000	94.667614 
3849.000000	94.672677 
3848.000000	94.674577 
3847.000000	94.677082 
3846.000000	94.681759 
3845.000000	94.686081 
3844.000000	94.687388 
3843.000000	94.685589 
3842.000000	94.682875 
3841.000000	94.681755 
3840.000000	94.683171 
3839.000000	94.685916 
3838.000000	94.688366 
3837.000000	94.690295 
3836.000000	94.692446 
3835.000000	94.694752 
3834.000000	94.696276 
3833.000000	94.696786 
3832.000000	94.697179 
3831.000000	94.698211 
3830.000000	94.699762 
3829.000000	94.701244 
3828.000000	94.701907 
3827.000000	94.701158 
3826.000000	94.698932 
3825.000000	94.696091 
3824.000000	94.694235 
3823.000000	94.694431 
3822.000000	94.696010 
3821.000000	94.696876 
3820.000000	94.696255 
3819.000000	94.696251 
3818.000000	94.698966 
3817.000000	94.703301 
3816.000000	94.706344 
3815.000000	94.707336 
3814.000000	94.708030 
3813.000000	94.709810 
3812.000000	94.711277 
3811.000000	94.710613 
3810.000000	94.708762 
3809.000000	94.707863 
3808.000000	94.708188 
3807.000000	94.708088 
3806.000000	94.706340 
3805.000000	94.703890 
3804.000000	94.702564 
3803.000000	94.702521 
3802.000000	94.702145 
3801.000000	94.700102 
3800.000000	94.697193 
3799.000000	94.695678 
3798.000000	94.696280 
3797.000000	94.697406 
3796.000000	94.697639 
3795.000000	94.697151 
3794.000000	94.696448 
3793.000000	94.695547 
3792.000000	94.694157 
3791.000000	94.692425 
3790.000000	94.691032 
3789.000000	94.690449 
3788.000000	94.690544 
3787.000000	94.690908 
3786.000000	94.691177 
3785.000000	94.691040 
3784.000000	94.690344 
3783.000000	94.689438 
3782.000000	94.689066 
3781.000000	94.689642 
3780.000000	94.690649 
3779.000000	94.691018 
3778.000000	94.690200 
3777.000000	94.688576 
3776.000000	94.686619 
3775.000000	94.684108 
3774.000000	94.680957 
3773.000000	94.678082 
3772.000000	94.676768 
3771.000000	94.677358 
3770.000000	94.678784 
3769.000000	94.679722 
3768.000000	94.680110 
3767.000000	94.680525 
3766.000000	94.680352 
3765.000000	94.678160 
3764.000000	94.673695 
3763.000000	94.668175 
3762.000000	94.662769 
3761.000000	94.657865 
3760.000000	94.654093 
3759.000000	94.652616 
3758.000000	94.653375 
3757.000000	94.654218 
3756.000000	94.652857 
3755.000000	94.649072 
3754.000000	94.644829 
3753.000000	94.643007 
3752.000000	94.646489 
3751.000000	94.654939 
3750.000000	94.662195 
3749.000000	94.661704 
3748.000000	94.653476 
3747.000000	94.643554 
3746.000000	94.637707 
3745.000000	94.634087 
3744.000000	94.624007 
3743.000000	94.605798 
3742.000000	94.590490 
3741.000000	94.584985 
3740.000000	94.582831 
3739.000000	94.579318 
3738.000000	94.576318 
3737.000000	94.572646 
3736.000000	94.567245 
3735.000000	94.564094 
3734.000000	94.566988 
3733.000000	94.573194 
3732.000000	94.575219 
3731.000000	94.569487 
3730.000000	94.559643 
3729.000000	94.549537 
3728.000000	94.538382 
3727.000000	94.525817 
3726.000000	94.515057 
3725.000000	94.508698 
3724.000000	94.505245 
3723.000000	94.500716 
3722.000000	94.493287 
3721.000000	94.486069 
3720.000000	94.482426 
3719.000000	94.480594 
3718.000000	94.475280 
3717.000000	94.463157 
3716.000000	94.446140 
3715.000000	94.428860 
3714.000000	94.413669 
3713.000000	94.399137 
3712.000000	94.382706 
3711.000000	94.363098 
3710.000000	94.341080 
3709.000000	94.318546 
3708.000000	94.296401 
3707.000000	94.274737 
3706.000000	94.254881 
3705.000000	94.237946 
3704.000000	94.221830 
3703.000000	94.202886 
3702.000000	94.180188 
3701.000000	94.156455 
3700.000000	94.135183 
3699.000000	94.117987 
3698.000000	94.103585 
3697.000000	94.088986 
3696.000000	94.073107 
3695.000000	94.058383 
3694.000000	94.048125 
3693.000000	94.043431 
3692.000000	94.042929 
3691.000000	94.043260 
3690.000000	94.038204 
3689.000000	94.022124 
3688.000000	93.997472 
3687.000000	93.974258 
3686.000000	93.959226 
3685.000000	93.948442 
3684.000000	93.933884 
3683.000000	93.913908 
3682.000000	93.892624 
3681.000000	93.871834 
3680.000000	93.848510 
3679.000000	93.820248 
3678.000000	93.790363 
3677.000000	93.763625 
3676.000000	93.736817 
3675.000000	93.702248 
3674.000000	93.662384 
3673.000000	93.629614 
3672.000000	93.605909 
3671.000000	93.579139 
3670.000000	93.543270 
3669.000000	93.505047 
3668.000000	93.474657 
3667.000000	93.454486 
3666.000000	93.434866 
3665.000000	93.407569 
3664.000000	93.376030 
3663.000000	93.347007 
3662.000000	93.322470 
3661.000000	93.299646 
3660.000000	93.275392 
3659.000000	93.250238 
3658.000000	93.227370 
3657.000000	93.206471 
3656.000000	93.180815 
3655.000000	93.144793 
3654.000000	93.101747 
3653.000000	93.059939 
3652.000000	93.024576 
3651.000000	92.996826 
3650.000000	92.972742 
3649.000000	92.946338 
3648.000000	92.919565 
3647.000000	92.899012 
3646.000000	92.884411 
3645.000000	92.870861 
3644.000000	92.856472 
3643.000000	92.842097 
3642.000000	92.827871 
3641.000000	92.813104 
3640.000000	92.797947 
3639.000000	92.782795 
3638.000000	92.766851 
3637.000000	92.748945 
3636.000000	92.728890 
3635.000000	92.705361 
3634.000000	92.674807 
3633.000000	92.636455 
3632.000000	92.597189 
3631.000000	92.567328 
3630.000000	92.549098 
3629.000000	92.529598 
3628.000000	92.495673 
3627.000000	92.457605 
3626.000000	92.437824 
3625.000000	92.441436 
3624.000000	92.457920 
3623.000000	92.479326 
3622.000000	92.503400 
3621.000000	92.530401 
3620.000000	92.559535 
3619.000000	92.584813 
3618.000000	92.600626 
3617.000000	92.610194 
3616.000000	92.622244 
3615.000000	92.641313 
3614.000000	92.665219 
3613.000000	92.690144 
3612.000000	92.716153 
3611.000000	92.746811 
3610.000000	92.783314 
3609.000000	92.820980 
3608.000000	92.852939 
3607.000000	92.877170 
3606.000000	92.898228 
3605.000000	92.922115 
3604.000000	92.951609 
3603.000000	92.985777 
3602.000000	93.021048 
3601.000000	93.052217 
3600.000000	93.074962 
3599.000000	93.088298 
3598.000000	93.094420 
3597.000000	93.096377 
3596.000000	93.096805 
3595.000000	93.097051 
3594.000000	93.096216 
3593.000000	93.093348 
3592.000000	93.090721 
3591.000000	93.093191 
3590.000000	93.104366 
3589.000000	93.122710 
3588.000000	93.139918 
3587.000000	93.146371 
3586.000000	93.140385 
3585.000000	93.129825 
3584.000000	93.124417 
3583.000000	93.128924 
3582.000000	93.142461 
3581.000000	93.159593 
3580.000000	93.173069 
3579.000000	93.178955 
3578.000000	93.178999 
3577.000000	93.177445 
3576.000000	93.175952 
3575.000000	93.172411 
3574.000000	93.164219 
3573.000000	93.151560 
3572.000000	93.137133 
3571.000000	93.123787 
3570.000000	93.113222 
3569.000000	93.105517 
3568.000000	93.097946 
3567.000000	93.085965 
3566.000000	93.069089 
3565.000000	93.054622 
3564.000000	93.051623 
3563.000000	93.061738 
3562.000000	93.077775 
3561.000000	93.090147 
3560.000000	93.094479 
3559.000000	93.093450 
3558.000000	93.091878 
3557.000000	93.091403 
3556.000000	93.090471 
3555.000000	93.087810 
3554.000000	93.083996 
3553.000000	93.079531 
3552.000000	93.073332 
3551.000000	93.064569 
3550.000000	93.054975 
3549.000000	93.047606 
3548.000000	93.043494 
3547.000000	93.040707 
3546.000000	93.037035 
3545.000000	93.032865 
3544.000000	93.030438 
3543.000000	93.030665 
3542.000000	93.031772 
3541.000000	93.031149 
3540.000000	93.027946 
3539.000000	93.023742 
3538.000000	93.020897 
3537.000000	93.020399 
3536.000000	93.021156 
3535.000000	93.021115 
3534.000000	93.018927 
3533.000000	93.014540 
3532.000000	93.008750 
3531.000000	93.002586 
3530.000000	92.996998 
3529.000000	92.992615 
3528.000000	92.989283 
3527.000000	92.986018 
3526.000000	92.981956 
3525.000000	92.977289 
3524.000000	92.972834 
3523.000000	92.968802 
3522.000000	92.964715 
3521.000000	92.960637 
3520.000000	92.957574 
3519.000000	92.956214 
3518.000000	92.955925 
3517.000000	92.955362 
3516.000000	92.953962 
3515.000000	92.952035 
3514.000000	92.949685 
3513.000000	92.946404 
3512.000000	92.941793 
3511.000000	92.936176 
3510.000000	92.930406 
3509.000000	92.925310 
3508.000000	92.921229 
3507.000000	92.917801 
3506.000000	92.914127 
3505.000000	92.909457 
3504.000000	92.903925 
3503.000000	92.898456 
3502.000000	92.893774 
3501.000000	92.889757 
3500.000000	92.885906 
3499.000000	92.882148 
3498.000000	92.878916 
3497.000000	92.876512 
3496.000000	92.874578 
3495.000000	92.872169 
3494.000000	92.868377 
3493.000000	92.863050 
3492.000000	92.857070 
3491.000000	92.851880 
3490.000000	92.848419 
3489.000000	92.846465 
3488.000000	92.844772 
3487.000000	92.841998 
3486.000000	92.837652 
3485.000000	92.832170 
3484.000000	92.826320 
3483.000000	92.820549 
3482.000000	92.814884 
3481.000000	92.809239 
3480.000000	92.803715 
3479.000000	92.798553 
3478.000000	92.793821 
3477.000000	92.789209 
3476.000000	92.784204 
3475.000000	92.778581 
3474.000000	92.772736 
3473.000000	92.767395 
3472.000000	92.762898 
3471.000000	92.758820 
3470.000000	92.754358 
3469.000000	92.749151 
3468.000000	92.743632 
3467.000000	92.738570 
3466.000000	92.734249 
3465.000000	92.730120 
3464.000000	92.725228 
3463.000000	92.718992 
3462.000000	92.711709 
3461.000000	92.704443 
3460.000000	92.698228 
3459.000000	92.693279 
3458.000000	92.688976 
3457.000000	92.684565 
3456.000000	92.679859 
3455.000000	92.675184 
3454.000000	92.670795 
3453.000000	92.666444 
3452.000000	92.661411 
3451.000000	92.654919 
3450.000000	92.646754 
3449.000000	92.637715 
3448.000000	92.629480 
3447.000000	92.623560 
3446.000000	92.620039 
3445.000000	92.617362 
3444.000000	92.613365 
3443.000000	92.606766 
3442.000000	92.597965 
3441.000000	92.588797 
3440.000000	92.581123 
3439.000000	92.575352 
3438.000000	92.570228 
3437.000000	92.564191 
3436.000000	92.557157 
3435.000000	92.550635 
3434.000000	92.546111 
3433.000000	92.543648 
3432.000000	92.542029 
3431.000000	92.539984 
3430.000000	92.537054 
3429.000000	92.533426 
3428.000000	92.529413 
3427.000000	92.525258 
3426.000000	92.521190 
3425.000000	92.517425 
3424.000000	92.513999 
3423.000000	92.510601 
3422.000000	92.506734 
3421.000000	92.502263 
3420.000000	92.497820 
3419.000000	92.494419 
3418.000000	92.492474 
3417.000000	92.491232 
3416.000000	92.489254 
3415.000000	92.485621 
3414.000000	92.480800 
3413.000000	92.476428 
3412.000000	92.474025 
3411.000000	92.473624 
3410.000000	92.473605 
3409.000000	92.472169 
3408.000000	92.469145 
3407.000000	92.466217 
3406.000000	92.465235 
3405.000000	92.466433 
3404.000000	92.468172 
3403.000000	92.468214 
3402.000000	92.465417 
3401.000000	92.460676 
3400.000000	92.456622 
3399.000000	92.455776 
3398.000000	92.458478 
3397.000000	92.462399 
3396.000000	92.464334 
3395.000000	92.463032 
3394.000000	92.459999 
3393.000000	92.457786 
3392.000000	92.457612 
3391.000000	92.458734 
3390.000000	92.459678 
3389.000000	92.459612 
3388.000000	92.458670 
3387.000000	92.457621 
3386.000000	92.457492 
3385.000000	92.459035 
3384.000000	92.462070 
3383.000000	92.465450 
3382.000000	92.468100 
3381.000000	92.470047 
3380.000000	92.472065 
3379.000000	92.474401 
3378.000000	92.476349 
3377.000000	92.477276 
3376.000000	92.477695 
3375.000000	92.478931 
3374.000000	92.481913 
3373.000000	92.486579 
3372.000000	92.492162 
3371.000000	92.497669 
3370.000000	92.502072 
3369.000000	92.504508 
3368.000000	92.504790 
3367.000000	92.503623 
3366.000000	92.502260 
3365.000000	92.501814 
3364.000000	92.502826 
3363.000000	92.505436 
3362.000000	92.509618 
3361.000000	92.515039 
3360.000000	92.520854 
3359.000000	92.525939 
3358.000000	92.529648 
3357.000000	92.532248 
3356.000000	92.534570 
3355.000000	92.537210 
3354.000000	92.540035 
3353.000000	92.542574 
3352.000000	92.544725 
3351.000000	92.546941 
3350.000000	92.549734 
3349.000000	92.553159 
3348.000000	92.556814 
3347.000000	92.560284 
3346.000000	92.563530 
3345.000000	92.566795 
3344.000000	92.570252 
3343.000000	92.573819 
3342.000000	92.577288 
3341.000000	92.580545 
3340.000000	92.583641 
3339.000000	92.586713 
3338.000000	92.589876 
3337.000000	92.593178 
3336.000000	92.596591 
3335.000000	92.600031 
3334.000000	92.603401 
3333.000000	92.606660 
3332.000000	92.609864 
3331.000000	92.613133 
3330.000000	92.616540 
3329.000000	92.620059 
3328.000000	92.623569 
3327.000000	92.626950 
3326.000000	92.630178 
3325.000000	92.633317 
3324.000000	92.636483 
3323.000000	92.639743 
3322.000000	92.643101 
3321.000000	92.646527 
3320.000000	92.649953 
3319.000000	92.653310 
3318.000000	92.656561 
3317.000000	92.659723 
3316.000000	92.662822 
3315.000000	92.665846 
3314.000000	92.668757 
3313.000000	92.671529 
3312.000000	92.674194 
3311.000000	92.676875 
3310.000000	92.679774 
3309.000000	92.683039 
3308.000000	92.686605 
3307.000000	92.690193 
3306.000000	92.693563 
3305.000000	92.696748 
3304.000000	92.699980 
3303.000000	92.703397 
3302.000000	92.706861 
3301.000000	92.710131 
3300.000000	92.713160 
3299.000000	92.716148 
3298.000000	92.719303 
3297.000000	92.722637 
3296.000000	92.726037 
3295.000000	92.729472 
3294.000000	92.732983 
3293.000000	92.736498 
3292.000000	92.739768 
3291.000000	92.742616 
3290.000000	92.745226 
3289.000000	92.748076 
3288.000000	92.751496 
3287.000000	92.755343 
3286.000000	92.759060 
3285.000000	92.762165 
3284.000000	92.764553 
3283.000000	92.766548 
3282.000000	92.768688 
3281.000000	92.771383 
3280.000000	92.774688 
3279.000000	92.778316 
3278.000000	92.781987 
3277.000000	92.785692 
3276.000000	92.789536 
3275.000000	92.793469 
3274.000000	92.797274 
3273.000000	92.800822 
3272.000000	92.804179 
3271.000000	92.807437 
3270.000000	92.810583 
3269.000000	92.813617 
3268.000000	92.816700 
3267.000000	92.820039 
3266.000000	92.823640 
3265.000000	92.827266 
3264.000000	92.830651 
3263.000000	92.833728 
3262.000000	92.836656 
3261.000000	92.839657 
3260.000000	92.842851 
3259.000000	92.846204 
3258.000000	92.849607 
3257.000000	92.853004 
3256.000000	92.856433 
3255.000000	92.859947 
3254.000000	92.863518 
3253.000000	92.867055 
3252.000000	92.870491 
3251.000000	92.873820 
3250.000000	92.877074 
3249.000000	92.880308 
3248.000000	92.883610 
3247.000000	92.887058 
3246.000000	92.890608 
3245.000000	92.894097 
3244.000000	92.897415 
3243.000000	92.900647 
3242.000000	92.903994 
3241.000000	92.907547 
3240.000000	92.911170 
3239.000000	92.914649 
3238.000000	92.917917 
3237.000000	92.921137 
3236.000000	92.924575 
3235.000000	92.928352 
3234.000000	92.932375 
3233.000000	92.936442 
3232.000000	92.940425 
3231.000000	92.944310 
3230.000000	92.948143 
3229.000000	92.952003 
3228.000000	92.955969 
3227.000000	92.960058 
3226.000000	92.964217 
3225.000000	92.968359 
3224.000000	92.972435 
3223.000000	92.976466 
3222.000000	92.980516 
3221.000000	92.984649 
3220.000000	92.988881 
3219.000000	92.993176 
3218.000000	92.997478 
3217.000000	93.001756 
3216.000000	93.006026 
3215.000000	93.010333 
3214.000000	93.014717 
3213.000000	93.019182 
3212.000000	93.023709 
3211.000000	93.028274 
3210.000000	93.032867 
3209.000000	93.037495 
3208.000000	93.042164 
3207.000000	93.046869 
3206.000000	93.051598 
3205.000000	93.056342 
3204.000000	93.061097 
3203.000000	93.065862 
3202.000000	93.070645 
3201.000000	93.075455 
3200.000000	93.080301 
3199.000000	93.085183 
3198.000000	93.090098 
3197.000000	93.095038 
3196.000000	93.099992 
3195.000000	93.104947 
3194.000000	93.109897 
3193.000000	93.114838 
3192.000000	93.119773 
3191.000000	93.124702 
3190.000000	93.129622 
3189.000000	93.134530 
3188.000000	93.139428 
3187.000000	93.144325 
3186.000000	93.149231 
3185.000000	93.154154 
3184.000000	93.159095 
3183.000000	93.164048 
3182.000000	93.169006 
3181.000000	93.173967 
3180.000000	93.178930 
3179.000000	93.183900 
3178.000000	93.188877 
3177.000000	93.193862 
3176.000000	93.198852 
3175.000000	93.203847 
3174.000000	93.208845 
3173.000000	93.213846 
3172.000000	93.218848 
3171.000000	93.223845 
3170.000000	93.228836 
3169.000000	93.233818 
3168.000000	93.238794 
3167.000000	93.243769 
3166.000000	93.248748 
3165.000000	93.253734 
3164.000000	93.258728 
3163.000000	93.263730 
3162.000000	93.268737 
3161.000000	93.273745 
3160.000000	93.278749 
3159.000000	93.283748 
3158.000000	93.288740 
3157.000000	93.293724 
3156.000000	93.298698 
3155.000000	93.303660 
3154.000000	93.308610 
3153.000000	93.313554 
3152.000000	93.318508 
3151.000000	93.323479 
3150.000000	93.328453 
3149.000000	93.333414 
3148.000000	93.338363 
3147.000000	93.343331 
3146.000000	93.348362 
3145.000000	93.353477 
3144.000000	93.358671 
3143.000000	93.363897 
3142.000000	93.369063 
3141.000000	93.374102 
3140.000000	93.379002 
3139.000000	93.383815 
3138.000000	93.388629 
3137.000000	93.393512 
3136.000000	93.398483 
3135.000000	93.403502 
3134.000000	93.408482 
3133.000000	93.413382 
3132.000000	93.418261 
3131.000000	93.423224 
3130.000000	93.428305 
3129.000000	93.433416 
3128.000000	93.438422 
3127.000000	93.443287 
3126.000000	93.448099 
3125.000000	93.452972 
3124.000000	93.457918 
3123.000000	93.462846 
3122.000000	93.467660 
3121.000000	93.472333 
3120.000000	93.476910 
3119.000000	93.481479 
3118.000000	93.486127 
3117.000000	93.490893 
3116.000000	93.495753 
3115.000000	93.500638 
3114.000000	93.505476 
3113.000000	93.510222 
3112.000000	93.514913 
3111.000000	93.519721 
3110.000000	93.524877 
3109.000000	93.530412 
3108.000000	93.535911 
3107.000000	93.540745 
3106.000000	93.544668 
3105.000000	93.548230 
3104.000000	93.552463 
3103.000000	93.558029 
3102.000000	93.564687 
3101.000000	93.571359 
3100.000000	93.577020 
3099.000000	93.581467 
3098.000000	93.585276 
3097.000000	93.588974 
3096.000000	93.592379 
3095.000000	93.595018 
3094.000000	93.597037 
3093.000000	93.599322 
3092.000000	93.602632 
3091.000000	93.606835 
3090.000000	93.611226 
3089.000000	93.615408 
3088.000000	93.619648 
3087.000000	93.624459 
3086.000000	93.629929 
3085.000000	93.635432 
3084.000000	93.640113 
3083.000000	93.643744 
3082.000000	93.646923 
3081.000000	93.650366 
3080.000000	93.654285 
3079.000000	93.658733 
3078.000000	93.664225 
3077.000000	93.671382 
3076.000000	93.679919 
3075.000000	93.688497 
3074.000000	93.695731 
3073.000000	93.701013 
3072.000000	93.704422 
3071.000000	93.706445 
3070.000000	93.707916 
3069.000000	93.709555 
3068.000000	93.711075 
3067.000000	93.711201 
3066.000000	93.709124 
3065.000000	93.705885 
3064.000000	93.704064 
3063.000000	93.706024 
3062.000000	93.712326 
3061.000000	93.721301 
3060.000000	93.729930 
3059.000000	93.735852 
3058.000000	93.739227 
3057.000000	93.742575 
3056.000000	93.748064 
3055.000000	93.754489 
3054.000000	93.757330 
3053.000000	93.752313 
3052.000000	93.739519 
3051.000000	93.724678 
3050.000000	93.715933 
3049.000000	93.717953 
3048.000000	93.728203 
3047.000000	93.738962 
3046.000000	93.743769 
3045.000000	93.742200 
3044.000000	93.738672 
3043.000000	93.737336 
3042.000000	93.738684 
3041.000000	93.740481 
3040.000000	93.740514 
3039.000000	93.737906 
3038.000000	93.732873 
3037.000000	93.726271 
3036.000000	93.719123 
3035.000000	93.711916 
3034.000000	93.704346 
3033.000000	93.696193 
3032.000000	93.688306 
3031.000000	93.681940 
3030.000000	93.676718 
3029.000000	93.669948 
3028.000000	93.658788 
3027.000000	93.643066 
3026.000000	93.625626 
3025.000000	93.609745 
3024.000000	93.596500 
3023.000000	93.584849 
3022.000000	93.573785 
3021.000000	93.563573 
3020.000000	93.554711 
3019.000000	93.546382 
3018.000000	93.536679 
3017.000000	93.524463 
3016.000000	93.510415 
3015.000000	93.495724 
3014.000000	93.479895 
3013.000000	93.460554 
3012.000000	93.435974 
3011.000000	93.407684 
3010.000000	93.380060 
3009.000000	93.356897 
3008.000000	93.338318 
3007.000000	93.320945 
3006.000000	93.300921 
3005.000000	93.276916 
3004.000000	93.250876 
3003.000000	93.226354 
3002.000000	93.205871 
3001.000000	93.189131 
3000.000000	93.173372 
2999.000000	93.155740 
2998.000000	93.135881 
2997.000000	93.116406 
2996.000000	93.100111 
2995.000000	93.085700 
2994.000000	93.066116 
2993.000000	93.032703 
2992.000000	92.983186 
2991.000000	92.926152 
2990.000000	92.876363 
2989.000000	92.844457 
2988.000000	92.831134 
2987.000000	92.830145 
2986.000000	92.834457 
2985.000000	92.838622 
2984.000000	92.837843 
2983.000000	92.829071 
2982.000000	92.813964 
2981.000000	92.798319 
2980.000000	92.786952 
2979.000000	92.780101 
2978.000000	92.775249 
2977.000000	92.770619 
2976.000000	92.765818 
2975.000000	92.761181 
2974.000000	92.759121 
2973.000000	92.765247 
2972.000000	92.785116 
2971.000000	92.818844 
2970.000000	92.860430 
2969.000000	92.903461 
2968.000000	92.946412 
2967.000000	92.991363 
2966.000000	93.038653 
2965.000000	93.084817 
2964.000000	93.125661 
2963.000000	93.159493 
2962.000000	93.186670 
2961.000000	93.207753 
2960.000000	93.224011 
2959.000000	93.239083 
2958.000000	93.257605 
2957.000000	93.280886 
2956.000000	93.305190 
2955.000000	93.325736 
2954.000000	93.341831 
2953.000000	93.356537 
2952.000000	93.371747 
2951.000000	93.385562 
2950.000000	93.395193 
2949.000000	93.400729 
2948.000000	93.404516 
2947.000000	93.407863 
2946.000000	93.410183 
2945.000000	93.411270 
2944.000000	93.412773 
2943.000000	93.416806 
2942.000000	93.423782 
2941.000000	93.431993 
2940.000000	93.438887 
2939.000000	93.442607 
2938.000000	93.442959 
2937.000000	93.441667 
2936.000000	93.441761 
2935.000000	93.446015 
2934.000000	93.455095 
2933.000000	93.466767 
2932.000000	93.477235 
2931.000000	93.484136 
2930.000000	93.488676 
2929.000000	93.494459 
2928.000000	93.503739 
2927.000000	93.514998 
2926.000000	93.524653 
2925.000000	93.530918 
2924.000000	93.535417 
2923.000000	93.541088 
2922.000000	93.549144 
2921.000000	93.558310 
2920.000000	93.566529 
2919.000000	93.572545 
2918.000000	93.575519 
2917.000000	93.573613 
2916.000000	93.564025 
2915.000000	93.545176 
2914.000000	93.518854 
2913.000000	93.489778 
2912.000000	93.462913 
2911.000000	93.441161 
2910.000000	93.424916 
2909.000000	93.412633 
2908.000000	93.401688 
2907.000000	93.389725 
2906.000000	93.375896 
2905.000000	93.360630 
2904.000000	93.344314 
2903.000000	93.327464 
2902.000000	93.312901 
2901.000000	93.306347 
2900.000000	93.312880 
2899.000000	93.331955 
2898.000000	93.356503 
2897.000000	93.377727 
2896.000000	93.391033 
2895.000000	93.398048 
2894.000000	93.403656 
2893.000000	93.411629 
2892.000000	93.422412 
2891.000000	93.433672 
2890.000000	93.442195 
2889.000000	93.445665 
2888.000000	93.443844 
2887.000000	93.439050 
2886.000000	93.435431 
2885.000000	93.437051 
2884.000000	93.446107 
2883.000000	93.462417 
2882.000000	93.483860 
2881.000000	93.507102 
2880.000000	93.528920 
2879.000000	93.548145 
2878.000000	93.566187 
2877.000000	93.584787 
2876.000000	93.603408 
2875.000000	93.619968 
2874.000000	93.634095 
2873.000000	93.648166 
2872.000000	93.664611 
2871.000000	93.683310 
2870.000000	93.702216 
2869.000000	93.719397 
2868.000000	93.733985 
2867.000000	93.746610 
2866.000000	93.759925 
2865.000000	93.777380 
2864.000000	93.799967 
2863.000000	93.825050 
2862.000000	93.849682 
2861.000000	93.873988 
2860.000000	93.899590 
2859.000000	93.925839 
2858.000000	93.950057 
2857.000000	93.971222 
2856.000000	93.990942 
2855.000000	94.010426 
2854.000000	94.028762 
2853.000000	94.045121 
2852.000000	94.060678 
2851.000000	94.076885 
2850.000000	94.092761 
2849.000000	94.105025 
2848.000000	94.110606 
2847.000000	94.108859 
2846.000000	94.102506 
2845.000000	94.096967 
2844.000000	94.097286 
2843.000000	94.104177 
2842.000000	94.113228 
2841.000000	94.118907 
2840.000000	94.119536 
2839.000000	94.118198 
2838.000000	94.119357 
2837.000000	94.125215 
2836.000000	94.134896 
2835.000000	94.145922 
2834.000000	94.156009 
2833.000000	94.164052 
2832.000000	94.170218 
2831.000000	94.175328 
2830.000000	94.179840 
2829.000000	94.183163 
2828.000000	94.184087 
2827.000000	94.182465 
2826.000000	94.180662 
2825.000000	94.182682 
2824.000000	94.191025 
2823.000000	94.204202 
2822.000000	94.217605 
2821.000000	94.226884 
2820.000000	94.230481 
2819.000000	94.229476 
2818.000000	94.226188 
2817.000000	94.223180 
2816.000000	94.222628 
2815.000000	94.225515 
2814.000000	94.231034 
2813.000000	94.237008 
2812.000000	94.241419 
2811.000000	94.243907 
2810.000000	94.245863 
2809.000000	94.248918 
2808.000000	94.253354 
2807.000000	94.258122 
2806.000000	94.262128 
2805.000000	94.265093 
2804.000000	94.267358 
2803.000000	94.269483 
2802.000000	94.272108 
2801.000000	94.275695 
2800.000000	94.280050 
2799.000000	94.284298 
2798.000000	94.287605 
2797.000000	94.289886 
2796.000000	94.291727 
2795.000000	94.293752 
2794.000000	94.296092 
2793.000000	94.298554 
2792.000000	94.301089 
2791.000000	94.303878 
2790.000000	94.307067 
2789.000000	94.310591 
2788.000000	94.314180 
2787.000000	94.317477 
2786.000000	94.320235 
2785.000000	94.322525 
2784.000000	94.324767 
2783.000000	94.327354 
2782.000000	94.330200 
2781.000000	94.332804 
2780.000000	94.334825 
2779.000000	94.336386 
2778.000000	94.337860 
2777.000000	94.339521 
2776.000000	94.341427 
2775.000000	94.343518 
2774.000000	94.345732 
2773.000000	94.348034 
2772.000000	94.350423 
2771.000000	94.352914 
2770.000000	94.355457 
2769.000000	94.357875 
2768.000000	94.359967 
2767.000000	94.361729 
2766.000000	94.363432 
2765.000000	94.365398 
2764.000000	94.367665 
2763.000000	94.369971 
2762.000000	94.372044 
2761.000000	94.373890 
2760.000000	94.375727 
2759.000000	94.377701 
2758.000000	94.379755 
2757.000000	94.381763 
2756.000000	94.383698 
2755.000000	94.385605 
2754.000000	94.387517 
2753.000000	94.389430 
2752.000000	94.391348 
2751.000000	94.393290 
2750.000000	94.395253 
2749.000000	94.397211 
2748.000000	94.399148 
2747.000000	94.401071 
2746.000000	94.402991 
2745.000000	94.404914 
2744.000000	94.406845 
2743.000000	94.408790 
2742.000000	94.410756 
2741.000000	94.412744 
2740.000000	94.414754 
2739.000000	94.416777 
2738.000000	94.418806 
2737.000000	94.420837 
2736.000000	94.422862 
2735.000000	94.424861 
2734.000000	94.426790 
2733.000000	94.428651 
2732.000000	94.430541 
2731.000000	94.432541 
2730.000000	94.434604 
2729.000000	94.436677 
2728.000000	94.438877 
2727.000000	94.441302 
2726.000000	94.443689 
2725.000000	94.445584 
2724.000000	94.446944 
2723.000000	94.448241 
2722.000000	94.449794 
2721.000000	94.451490 
2720.000000	94.453309 
2719.000000	94.455596 
2718.000000	94.458540 
2717.000000	94.461744 
2716.000000	94.464529 
2715.000000	94.466486 
2714.000000	94.467697 
2713.000000	94.468656 
2712.000000	94.469918 
2711.000000	94.471508 
2710.000000	94.472883 
2709.000000	94.473928 
2708.000000	94.475654 
2707.000000	94.479097 
2706.000000	94.483646 
2705.000000	94.487450 
2704.000000	94.489730 
2703.000000	94.491629 
2702.000000	94.494321 
2701.000000	94.497249 
2700.000000	94.499032 
2699.000000	94.499289 
2698.000000	94.498583 
2697.000000	94.497179 
2696.000000	94.494997 
2695.000000	94.492652 
2694.000000	94.491435 
2693.000000	94.492098 
2692.000000	94.494475 
2691.000000	94.498391 
2690.000000	94.503998 
2689.000000	94.510772 
2688.000000	94.517009 
2687.000000	94.521264 
2686.000000	94.523804 
2685.000000	94.525811 
2684.000000	94.527349 
2683.000000	94.527106 
2682.000000	94.524425 
2681.000000	94.520709 
2680.000000	94.518016 
2679.000000	94.516708 
2678.000000	94.515368 
2677.000000	94.512861 
2676.000000	94.509906 
2675.000000	94.508412 
2674.000000	94.509620 
2673.000000	94.513257 
2672.000000	94.518125 
2671.000000	94.523214 
2670.000000	94.528208 
2669.000000	94.533072 
2668.000000	94.537442 
2667.000000	94.540636 
2666.000000	94.542233 
2665.000000	94.542422 
2664.000000	94.541857 
2663.000000	94.541313 
2662.000000	94.541379 
2661.000000	94.542152 
2660.000000	94.543138 
2659.000000	94.543777 
2658.000000	94.544206 
2657.000000	94.545191 
2656.000000	94.547129 
2655.000000	94.549427 
2654.000000	94.551116 
2653.000000	94.551833 
2652.000000	94.551923 
2651.000000	94.551847 
2650.000000	94.551873 
2649.000000	94.552189 
2648.000000	94.552889 
2647.000000	94.553762 
2646.000000	94.554394 
2645.000000	94.554618 
2644.000000	94.554713 
2643.000000	94.555121 
2642.000000	94.556042 
2641.000000	94.557285 
2640.000000	94.558369 
2639.000000	94.558867 
2638.000000	94.558747 
2637.000000	94.558508 
2636.000000	94.558806 
2635.000000	94.559818 
2634.000000	94.561146 
2633.000000	94.562241 
2632.000000	94.563011 
2631.000000	94.563748 
2630.000000	94.564575 
2629.000000	94.565187 
2628.000000	94.565266 
2627.000000	94.565018 
2626.000000	94.565076 
2625.000000	94.565834 
2624.000000	94.567096 
2623.000000	94.568329 
2622.000000	94.569150 
2621.000000	94.569544 
2620.000000	94.569776 
2619.000000	94.570150 
2618.000000	94.570727 
2617.000000	94.571202 
2616.000000	94.571123 
2615.000000	94.570259 
2614.000000	94.568818 
2613.000000	94.567395 
2612.000000	94.566695 
2611.000000	94.567177 
2610.000000	94.568799 
2609.000000	94.571140 
2608.000000	94.573925 
2607.000000	94.577328 
2606.000000	94.581534 
2605.000000	94.585989 
2604.000000	94.589423 
2603.000000	94.590849 
2602.000000	94.590423 
2601.000000	94.589232 
2600.000000	94.588191 
2599.000000	94.587307 
2598.000000	94.586140 
2597.000000	94.584773 
2596.000000	94.584127 
2595.000000	94.585221 
2594.000000	94.588146 
2593.000000	94.591758 
2592.000000	94.594416 
2591.000000	94.595272 
2590.000000	94.594724 
2589.000000	94.593870 
2588.000000	94.593591 
2587.000000	94.594134 
2586.000000	94.595251 
2585.000000	94.596325 
2584.000000	94.596518 
2583.000000	94.595326 
2582.000000	94.593207 
2581.000000	94.591348 
2580.000000	94.590586 
2579.000000	94.590913 
2578.000000	94.592083 
2577.000000	94.594176 
2576.000000	94.597153 
2575.000000	94.600305 
2574.000000	94.602827 
2573.000000	94.604708 
2572.000000	94.606377 
2571.000000	94.607726 
2570.000000	94.608216 
2569.000000	94.607893 
2568.000000	94.607472 
2567.000000	94.607219 
2566.000000	94.606531 
2565.000000	94.605028 
2564.000000	94.603456 
2563.000000	94.602887 
2562.000000	94.603417 
2561.000000	94.604347 
2560.000000	94.605352 
2559.000000	94.606749 
2558.000000	94.608573 
2557.000000	94.610117 
2556.000000	94.610823 
2555.000000	94.611160 
2554.000000	94.612048 
2553.000000	94.613503 
2552.000000	94.614417 
2551.000000	94.613937 
2550.000000	94.612494 
2549.000000	94.611331 
2548.000000	94.611114 
2547.000000	94.611457 
2546.000000	94.611688 
2545.000000	94.611684 
2544.000000	94.611815 
2543.000000	94.612348 
2542.000000	94.613186 
2541.000000	94.614120 
2540.000000	94.615079 
2539.000000	94.616094 
2538.000000	94.617093 
2537.000000	94.617793 
2536.000000	94.617914 
2535.000000	94.617500 
2534.000000	94.617003 
2533.000000	94.616928 
2532.000000	94.617337 
2531.000000	94.617842 
2530.000000	94.618062 
2529.000000	94.618002 
2528.000000	94.617928 
2527.000000	94.618003 
2526.000000	94.618192 
2525.000000	94.618441 
2524.000000	94.618776 
2523.000000	94.619187 
2522.000000	94.619565 
2521.000000	94.619823 
2520.000000	94.619979 
2519.000000	94.620095 
2518.000000	94.620195 
2517.000000	94.620327 
2516.000000	94.620585 
2515.000000	94.621003 
2514.000000	94.621483 
2513.000000	94.621917 
2512.000000	94.622348 
2511.000000	94.622922 
2510.000000	94.623705 
2509.000000	94.624562 
2508.000000	94.625220 
2507.000000	94.625502 
2506.000000	94.625518 
2505.000000	94.625689 
2504.000000	94.626402 
2503.000000	94.627681 
2502.000000	94.629071 
2501.000000	94.629988 
2500.000000	94.630266 
2499.000000	94.630213 
2498.000000	94.630257 
2497.000000	94.630540 
2496.000000	94.630902 
2495.000000	94.631089 
2494.000000	94.630984 
2493.000000	94.630731 
2492.000000	94.630671 
2491.000000	94.631023 
2490.000000	94.631682 
2489.000000	94.632367 
2488.000000	94.632943 
2487.000000	94.633486 
2486.000000	94.634058 
2485.000000	94.634618 
2484.000000	94.635140 
2483.000000	94.635648 
2482.000000	94.636100 
2481.000000	94.636364 
2480.000000	94.636413 
2479.000000	94.636471 
2478.000000	94.636867 
2477.000000	94.637777 
2476.000000	94.639106 
2475.000000	94.640535 
2474.000000	94.641693 
2473.000000	94.642383 
2472.000000	94.642701 
2471.000000	94.642940 
2470.000000	94.643291 
2469.000000	94.643683 
2468.000000	94.643940 
2467.000000	94.644032 
2466.000000	94.644087 
2465.000000	94.644225 
2464.000000	94.644445 
2463.000000	94.644643 
2462.000000	94.644694 
2461.000000	94.644594 
2460.000000	94.644556 
2459.000000	94.644848 
2458.000000	94.645533 
2457.000000	94.646384 
2456.000000	94.647059 
2455.000000	94.647406 
2454.000000	94.647516 
2453.000000	94.647579 
2452.000000	94.647697 
2451.000000	94.647878 
2450.000000	94.648122 
2449.000000	94.648415 
2448.000000	94.648693 
2447.000000	94.648903 
2446.000000	94.649087 
2445.000000	94.649323 
2444.000000	94.649609 
2443.000000	94.649859 
2442.000000	94.650020 
2441.000000	94.650130 
2440.000000	94.650248 
2439.000000	94.650398 
2438.000000	94.650573 
2437.000000	94.650775 
2436.000000	94.651000 
2435.000000	94.651224 
2434.000000	94.651420 
2433.000000	94.651585 
2432.000000	94.651739 
2431.000000	94.651903 
2430.000000	94.652089 
2429.000000	94.652302 
2428.000000	94.652543 
2427.000000	94.652808 
2426.000000	94.653091 
2425.000000	94.653387 
2424.000000	94.653697 
2423.000000	94.654020 
2422.000000	94.654353 
2421.000000	94.654694 
2420.000000	94.655041 
2419.000000	94.655392 
2418.000000	94.655744 
2417.000000	94.656095 
2416.000000	94.656447 
2415.000000	94.656805 
2414.000000	94.657175 
2413.000000	94.657565 
2412.000000	94.657978 
2411.000000	94.658411 
2410.000000	94.658864 
2409.000000	94.659337 
2408.000000	94.659835 
2407.000000	94.660353 
2406.000000	94.660883 
2405.000000	94.661414 
2404.000000	94.661936 
2403.000000	94.662447 
2402.000000	94.662955 
2401.000000	94.663474 
2400.000000	94.664015 
2399.000000	94.664584 
2398.000000	94.665178 
2397.000000	94.665796 
2396.000000	94.666442 
2395.000000	94.667125 
2394.000000	94.667849 
2393.000000	94.668611 
2392.000000	94.669395 
2391.000000	94.670186 
2390.000000	94.670932 
2389.000000	94.671610 
2388.000000	94.672276 
2387.000000	94.672982 
2386.000000	94.673739 
2385.000000	94.674525 
2384.000000	94.675312 
2383.000000	94.676064 
2382.000000	94.676762 
2381.000000	94.677444 
2380.000000	94.678165 
2379.000000	94.678922 
2378.000000	94.679640 
2377.000000	94.680270 
2376.000000	94.680852 
2375.000000	94.681478 
2374.000000	94.682213 
2373.000000	94.683048 
2372.000000	94.683891 
2371.000000	94.684613 
2370.000000	94.685176 
2369.000000	94.685699 
2368.000000	94.686341 
2367.000000	94.687080 
2366.000000	94.687723 
2365.000000	94.688146 
2364.000000	94.688394 
2363.000000	94.688543 
2362.000000	94.688659 
2361.000000	94.688910 
2360.000000	94.689441 
2359.000000	94.690180 
2358.000000	94.690864 
2357.000000	94.691350 
2356.000000	94.691744 
2355.000000	94.692130 
2354.000000	94.692517 
2353.000000	94.692786 
2352.000000	94.692764 
2351.000000	94.692352 
2350.000000	94.691613 
2349.000000	94.690810 
2348.000000	94.690249 
2347.000000	94.690088 
2346.000000	94.690250 
2345.000000	94.690482 
2344.000000	94.690549 
2343.000000	94.690419 
2342.000000	94.690192 
2341.000000	94.689969 
2340.000000	94.689807 
2339.000000	94.689699 
2338.000000	94.689590 
2337.000000	94.689442 
2336.000000	94.689269 
2335.000000	94.689109 
2334.000000	94.688963 
2333.000000	94.688800 
2332.000000	94.688577 
2331.000000	94.688292 
2330.000000	94.687947 
2329.000000	94.687582 
2328.000000	94.687232 
2327.000000	94.686947 
2326.000000	94.686726 
2325.000000	94.686531 
2324.000000	94.686334 
2323.000000	94.686144 
2322.000000	94.685988 
2321.000000	94.685867 
2320.000000	94.685767 
2319.000000	94.685668 
2318.000000	94.685561 
2317.000000	94.685446 
2316.000000	94.685329 
2315.000000	94.685227 
2314.000000	94.685154 
2313.000000	94.685119 
2312.000000	94.685120 
2311.000000	94.685156 
2310.000000	94.685224 
2309.000000	94.685325 
2308.000000	94.685455 
2307.000000	94.685605 
2306.000000	94.685755 
2305.000000	94.685885 
2304.000000	94.685983 
2303.000000	94.686055 
2302.000000	94.686118 
2301.000000	94.686191 
2300.000000	94.686280 
2299.000000	94.686377 
2298.000000	94.686470 
2297.000000	94.686550 
2296.000000	94.686615 
2295.000000	94.686674 
2294.000000	94.686733 
2293.000000	94.686801 
2292.000000	94.686883 
2291.000000	94.686981 
2290.000000	94.687101 
2289.000000	94.687242 
2288.000000	94.687402 
2287.000000	94.687574 
2286.000000	94.687748 
2285.000000	94.687913 
2284.000000	94.688064 
2283.000000	94.688202 
2282.000000	94.688331 
2281.000000	94.688457 
2280.000000	94.688582 
2279.000000	94.688708 
2278.000000	94.688836 
2277.000000	94.688965 
2276.000000	94.689091 
2275.000000	94.689214 
2274.000000	94.689336 
2273.000000	94.689463 
2272.000000	94.689596 
2271.000000	94.689734 
2270.000000	94.689869 
2269.000000	94.689998 
2268.000000	94.690121 
2267.000000	94.690243 
2266.000000	94.690372 
2265.000000	94.690514 
2264.000000	94.690669 
2263.000000	94.690835 
2262.000000	94.691004 
2261.000000	94.691175 
2260.000000	94.691347 
2259.000000	94.691525 
2258.000000	94.691707 
2257.000000	94.691894 
2256.000000	94.692089 
2255.000000	94.692294 
2254.000000	94.692513 
2253.000000	94.692749 
2252.000000	94.693000 
2251.000000	94.693266 
2250.000000	94.693540 
2249.000000	94.693814 
2248.000000	94.694081 
2247.000000	94.694345 
2246.000000	94.694614 
2245.000000	94.694901 
2244.000000	94.695214 
2243.000000	94.695553 
2242.000000	94.695913 
2241.000000	94.696287 
2240.000000	94.696672 
2239.000000	94.697068 
2238.000000	94.697474 
2237.000000	94.697890 
2236.000000	94.698315 
2235.000000	94.698747 
2234.000000	94.699189 
2233.000000	94.699642 
2232.000000	94.700107 
2231.000000	94.700580 
2230.000000	94.701051 
2229.000000	94.701511 
2228.000000	94.701955 
2227.000000	94.702385 
2226.000000	94.702804 
2225.000000	94.703215 
2224.000000	94.703620 
2223.000000	94.704022 
2222.000000	94.704425 
2221.000000	94.704829 
2220.000000	94.705233 
2219.000000	94.705639 
2218.000000	94.706062 
2217.000000	94.706527 
2216.000000	94.707042 
2215.000000	94.707573 
2214.000000	94.708062 
2213.000000	94.708475 
2212.000000	94.708820 
2211.000000	94.709144 
2210.000000	94.709473 
2209.000000	94.709795 
2208.000000	94.710084 
2207.000000	94.710337 
2206.000000	94.710567 
2205.000000	94.710810 
2204.000000	94.711110 
2203.000000	94.711475 
2202.000000	94.711868 
2201.000000	94.712216 
2200.000000	94.712473 
2199.000000	94.712642 
2198.000000	94.712768 
2197.000000	94.712906 
2196.000000	94.713092 
2195.000000	94.713316 
2194.000000	94.713519 
2193.000000	94.713642 
2192.000000	94.713685 
2191.000000	94.713702 
2190.000000	94.713750 
2189.000000	94.713843 
2188.000000	94.713966 
2187.000000	94.714081 
2186.000000	94.714161 
2185.000000	94.714228 
2184.000000	94.714340 
2183.000000	94.714520 
2182.000000	94.714724 
2181.000000	94.714878 
2180.000000	94.714966 
2179.000000	94.715030 
2178.000000	94.715108 
2177.000000	94.715192 
2176.000000	94.715257 
2175.000000	94.715290 
2174.000000	94.715292 
2173.000000	94.715265 
2172.000000	94.715224 
2171.000000	94.715212 
2170.000000	94.715274 
2169.000000	94.715408 
2168.000000	94.715577 
2167.000000	94.715739 
2166.000000	94.715870 
2165.000000	94.715975 
2164.000000	94.716068 
2163.000000	94.716159 
2162.000000	94.716248 
2161.000000	94.716322 
2160.000000	94.716374 
2159.000000	94.716409 
2158.000000	94.716434 
2157.000000	94.716457 
2156.000000	94.716482 
2155.000000	94.716513 
2154.000000	94.716549 
2153.000000	94.716585 
2152.000000	94.716618 
2151.000000	94.716647 
2150.000000	94.716676 
2149.000000	94.716708 
2148.000000	94.716749 
2147.000000	94.716795 
2146.000000	94.716841 
2145.000000	94.716879 
2144.000000	94.716909 
2143.000000	94.716939 
2142.000000	94.716978 
2141.000000	94.717028 
2140.000000	94.717088 
2139.000000	94.717155 
2138.000000	94.717233 
2137.000000	94.717326 
2136.000000	94.717438 
2135.000000	94.717568 
2134.000000	94.717708 
2133.000000	94.717845 
2132.000000	94.717970 
2131.000000	94.718080 
2130.000000	94.718181 
2129.000000	94.718284 
2128.000000	94.718393 
2127.000000	94.718510 
2126.000000	94.718635 
2125.000000	94.718771 
2124.000000	94.718922 
2123.000000	94.719092 
2122.000000	94.719285 
2121.000000	94.719502 
2120.000000	94.719739 
2119.000000	94.719994 
2118.000000	94.720263 
2117.000000	94.720546 
2116.000000	94.720846 
2115.000000	94.721168 
2114.000000	94.721510 
2113.000000	94.721864 
2112.000000	94.722222 
2111.000000	94.722579 
2110.000000	94.722933 
2109.000000	94.723286 
2108.000000	94.723646 
2107.000000	94.724017 
2106.000000	94.724399 
2105.000000	94.724784 
2104.000000	94.725167 
2103.000000	94.725552 
2102.000000	94.725951 
2101.000000	94.726368 
2100.000000	94.726801 
2099.000000	94.727240 
2098.000000	94.727678 
2097.000000	94.728117 
2096.000000	94.728542 
2095.000000	94.728935 
2094.000000	94.729288 
2093.000000	94.729602 
2092.000000	94.729881 
2091.000000	94.730119 
2090.000000	94.730311 
2089.000000	94.730498 
2088.000000	94.730809 
2087.000000	94.731372 
2086.000000	94.732137 
2085.000000	94.732870 
2084.000000	94.733453 
2083.000000	94.734033 
2082.000000	94.734781 
2081.000000	94.735642 
2080.000000	94.736450 
2079.000000	94.737105 
2078.000000	94.737460 
2077.000000	94.737299 
2076.000000	94.736692 
2075.000000	94.736208 
2074.000000	94.736382 
2073.000000	94.737085 
2072.000000	94.737667 
2071.000000	94.737614 
2070.000000	94.736903 
2069.000000	94.735898 
2068.000000	94.735217 
2067.000000	94.735433 
2066.000000	94.736577 
2065.000000	94.737960 
2064.000000	94.738846 
2063.000000	94.739253 
2062.000000	94.739690 
2061.000000	94.740222 
2060.000000	94.740363 
2059.000000	94.739750 
2058.000000	94.738468 
2057.000000	94.736860 
2056.000000	94.735206 
2055.000000	94.733780 
2054.000000	94.732935 
2053.000000	94.732869 
2052.000000	94.733328 
2051.000000	94.733620 
2050.000000	94.733138 
2049.000000	94.731941 
2048.000000	94.730694 
2047.000000	94.729960 
2046.000000	94.729660 
2045.000000	94.729339 
2044.000000	94.728714 
2043.000000	94.727786 
2042.000000	94.726608 
2041.000000	94.725273 
2040.000000	94.724079 
2039.000000	94.723309 
2038.000000	94.722893 
2037.000000	94.722434 
2036.000000	94.721634 
2035.000000	94.720553 
2034.000000	94.719429 
2033.000000	94.718406 
2032.000000	94.717516 
2031.000000	94.716766 
2030.000000	94.716050 
2029.000000	94.715127 
2028.000000	94.713875 
2027.000000	94.712492 
2026.000000	94.711284 
2025.000000	94.710336 
2024.000000	94.709569 
2023.000000	94.708916 
2022.000000	94.708316 
2021.000000	94.707625 
2020.000000	94.706810 
2019.000000	94.706125 
2018.000000	94.705824 
2017.000000	94.705724 
2016.000000	94.705319 
2015.000000	94.704322 
2014.000000	94.702899 
2013.000000	94.701443 
2012.000000	94.700238 
2011.000000	94.699428 
2010.000000	94.699008 
2009.000000	94.698750 
2008.000000	94.698356 
2007.000000	94.697769 
2006.000000	94.697157 
2005.000000	94.696563 
2004.000000	94.695834 
2003.000000	94.694961 
2002.000000	94.694302 
2001.000000	94.694170 
2000.000000	94.694361 
1999.000000	94.694342 
1998.000000	94.693818 
1997.000000	94.693054 
1996.000000	94.692553 
1995.000000	94.692528 
1994.000000	94.692792 
1993.000000	94.693064 
1992.000000	94.693278 
1991.000000	94.693578 
1990.000000	94.694060 
1989.000000	94.694604 
1988.000000	94.694981 
1987.000000	94.695077 
1986.000000	94.694988 
1985.000000	94.694908 
1984.000000	94.694959 
1983.000000	94.695106 
1982.000000	94.695262 
1981.000000	94.695394 
1980.000000	94.695557 
1979.000000	94.695830 
1978.000000	94.696225 
1977.000000	94.696659 
1976.000000	94.697000 
1975.000000	94.697186 
1974.000000	94.697250 
1973.000000	94.697309 
1972.000000	94.697484 
1971.000000	94.697803 
1970.000000	94.698198 
1969.000000	94.698547 
1968.000000	94.698792 
1967.000000	94.698972 
1966.000000	94.699165 
1965.000000	94.699400 
1964.000000	94.699648 
1963.000000	94.699857 
1962.000000	94.699974 
1961.000000	94.699967 
1960.000000	94.699863 
1959.000000	94.699749 
1958.000000	94.699713 
1957.000000	94.699770 
1956.000000	94.699818 
1955.000000	94.699692 
1954.000000	94.699281 
1953.000000	94.698616 
1952.000000	94.697902 
1951.000000	94.697383 
1950.000000	94.697202 
1949.000000	94.697303 
1948.000000	94.697454 
1947.000000	94.697389 
1946.000000	94.696939 
1945.000000	94.696168 
1944.000000	94.695434 
1943.000000	94.695194 
1942.000000	94.695610 
1941.000000	94.696376 
1940.000000	94.696962 
1939.000000	94.696845 
1938.000000	94.695630 
1937.000000	94.693391 
1936.000000	94.690953 
1935.000000	94.689333 
1934.000000	94.688742 
1933.000000	94.688429 
1932.000000	94.687531 
1931.000000	94.685962 
1930.000000	94.684416 
1929.000000	94.683306 
1928.000000	94.682364 
1927.000000	94.680973 
1926.000000	94.678713 
1925.000000	94.675940 
1924.000000	94.673429 
1923.000000	94.672085 
1922.000000	94.671967 
1921.000000	94.672038 
1920.000000	94.671109 
1919.000000	94.668911 
1918.000000	94.666245 
1917.000000	94.664223 
1916.000000	94.663369 
1915.000000	94.663507 
1914.000000	94.663798 
1913.000000	94.663279 
1912.000000	94.661400 
1911.000000	94.658351 
1910.000000	94.654814 
1909.000000	94.651130 
1908.000000	94.647379 
1907.000000	94.643248 
1906.000000	94.638110 
1905.000000	94.632287 
1904.000000	94.627045 
1903.000000	94.624362 
1902.000000	94.624427 
1901.000000	94.624529 
1900.000000	94.622077 
1899.000000	94.617501 
1898.000000	94.613045 
1897.000000	94.610059 
1896.000000	94.607726 
1895.000000	94.605235 
1894.000000	94.602954 
1893.000000	94.601317 
1892.000000	94.599898 
1891.000000	94.598173 
1890.000000	94.596342 
1889.000000	94.594683 
1888.000000	94.592852 
1887.000000	94.590378 
1886.000000	94.587119 
1885.000000	94.583433 
1884.000000	94.579930 
1883.000000	94.577028 
1882.000000	94.575051 
1881.000000	94.574756 
1880.000000	94.577638 
1879.000000	94.583468 
1878.000000	94.588229 
1877.000000	94.587584 
1876.000000	94.581579 
1875.000000	94.574604 
1874.000000	94.570761 
1873.000000	94.570149 
1872.000000	94.570487 
1871.000000	94.570866 
1870.000000	94.572295 
1869.000000	94.575170 
1868.000000	94.578369 
1867.000000	94.581571 
1866.000000	94.585361 
1865.000000	94.588901 
1864.000000	94.590642 
1863.000000	94.591136 
1862.000000	94.593226 
1861.000000	94.599259 
1860.000000	94.609157 
1859.000000	94.620768 
1858.000000	94.630829 
1857.000000	94.636540 
1856.000000	94.637957 
1855.000000	94.638573 
1854.000000	94.642120 
1853.000000	94.648352 
1852.000000	94.654258 
1851.000000	94.657948 
1850.000000	94.658933 
1849.000000	94.658708 
1848.000000	94.659802 
1847.000000	94.664073 
1846.000000	94.670411 
1845.000000	94.675217 
1844.000000	94.676422 
1843.000000	94.677275 
1842.000000	94.682034 
1841.000000	94.688909 
1840.000000	94.693005 
1839.000000	94.692189 
1838.000000	94.688851 
1837.000000	94.686994 
1836.000000	94.687547 
1835.000000	94.689307 
1834.000000	94.691540 
1833.000000	94.694271 
1832.000000	94.697184 
1831.000000	94.698594 
1830.000000	94.696279 
1829.000000	94.691012 
1828.000000	94.686286 
1827.000000	94.684297 
1826.000000	94.684480 
1825.000000	94.685632 
1824.000000	94.687031 
1823.000000	94.688600 
1822.000000	94.690420 
1821.000000	94.692093 
1820.000000	94.693071 
1819.000000	94.692918 
1818.000000	94.691883 
1817.000000	94.690596 
1816.000000	94.689048 
1815.000000	94.687521 
1814.000000	94.686625 
1813.000000	94.686854 
1812.000000	94.687951 
1811.000000	94.688435 
1810.000000	94.687295 
1809.000000	94.684634 
1808.000000	94.681530 
1807.000000	94.679375 
1806.000000	94.678503 
1805.000000	94.678098 
1804.000000	94.677650 
1803.000000	94.678098 
1802.000000	94.679944 
1801.000000	94.681590 
1800.000000	94.681053 
1799.000000	94.678312 
1798.000000	94.675589 
1797.000000	94.673951 
1796.000000	94.672519 
1795.000000	94.670486 
1794.000000	94.668460 
1793.000000	94.668030 
1792.000000	94.670275 
1791.000000	94.674638 
1790.000000	94.679592 
1789.000000	94.683315 
1788.000000	94.684849 
1787.000000	94.684550 
1786.000000	94.683604 
1785.000000	94.682901 
1784.000000	94.682473 
1783.000000	94.682596 
1782.000000	94.683550 
1781.000000	94.685388 
1780.000000	94.688110 
1779.000000	94.690593 
1778.000000	94.691972 
1777.000000	94.692017 
1776.000000	94.691675 
1775.000000	94.691867 
1774.000000	94.691865 
1773.000000	94.690589 
1772.000000	94.688951 
1771.000000	94.689680 
1770.000000	94.694383 
1769.000000	94.701968 
1768.000000	94.709559 
1767.000000	94.714805 
1766.000000	94.717332 
1765.000000	94.718420 
1764.000000	94.719154 
1763.000000	94.719860 
1762.000000	94.720286 
1761.000000	94.720067 
1760.000000	94.719448 
1759.000000	94.719079 
1758.000000	94.720273 
1757.000000	94.722958 
1756.000000	94.725783 
1755.000000	94.726788 
1754.000000	94.725342 
1753.000000	94.722779 
1752.000000	94.721885 
1751.000000	94.724495 
1750.000000	94.730052 
1749.000000	94.736167 
1748.000000	94.739810 
1747.000000	94.740090 
1746.000000	94.737514 
1745.000000	94.734950 
1744.000000	94.735555 
1743.000000	94.739094 
1742.000000	94.743048 
1741.000000	94.744937 
1740.000000	94.743253 
1739.000000	94.738666 
1738.000000	94.734571 
1737.000000	94.732305 
1736.000000	94.730173 
1735.000000	94.726503 
1734.000000	94.720633 
1733.000000	94.715813 
1732.000000	94.716519 
1731.000000	94.720860 
1730.000000	94.724643 
1729.000000	94.725008 
1728.000000	94.721593 
1727.000000	94.716215 
1726.000000	94.709543 
1725.000000	94.702203 
1724.000000	94.695374 
1723.000000	94.689839 
1722.000000	94.685783 
1721.000000	94.681166 
1720.000000	94.673449 
1719.000000	94.662161 
1718.000000	94.650686 
1717.000000	94.643211 
1716.000000	94.639513 
1715.000000	94.636694 
1714.000000	94.633103 
1713.000000	94.628491 
1712.000000	94.623162 
1711.000000	94.617806 
1710.000000	94.612531 
1709.000000	94.606675 
1708.000000	94.600189 
1707.000000	94.593492 
1706.000000	94.586828 
1705.000000	94.580282 
1704.000000	94.574348 
1703.000000	94.569277 
1702.000000	94.564204 
1701.000000	94.557891 
1700.000000	94.550308 
1699.000000	94.543745 
1698.000000	94.538901 
1697.000000	94.534398 
1696.000000	94.529237 
1695.000000	94.523430 
1694.000000	94.517572 
1693.000000	94.511874 
1692.000000	94.506135 
1691.000000	94.500331 
1690.000000	94.494598 
1689.000000	94.488989 
1688.000000	94.483456 
1687.000000	94.477847 
1686.000000	94.471979 
1685.000000	94.465802 
1684.000000	94.459569 
1683.000000	94.453943 
1682.000000	94.449309 
1681.000000	94.445152 
1680.000000	94.440798 
1679.000000	94.436033 
1678.000000	94.430878 
1677.000000	94.425487 
1676.000000	94.419835 
1675.000000	94.413829 
1674.000000	94.408074 
1673.000000	94.403728 
1672.000000	94.400071 
1671.000000	94.394487 
1670.000000	94.385516 
1669.000000	94.375167 
1668.000000	94.368948 
1667.000000	94.369195 
1666.000000	94.372983 
1665.000000	94.376901 
1664.000000	94.378735 
1663.000000	94.377216 
1662.000000	94.372078 
1661.000000	94.365237 
1660.000000	94.359871 
1659.000000	94.354889 
1658.000000	94.346707 
1657.000000	94.333883 
1656.000000	94.319776 
1655.000000	94.306162 
1654.000000	94.297826 
1653.000000	94.295283 
1652.000000	94.294209 
1651.000000	94.299740 
1650.000000	94.305960 
1649.000000	94.305853 
1648.000000	94.304530 
1647.000000	94.304328 
1646.000000	94.302264 
1645.000000	94.299056 
1644.000000	94.298310 
1643.000000	94.299814 
1642.000000	94.299511 
1641.000000	94.293563 
1640.000000	94.284548 
1639.000000	94.278503 
1638.000000	94.278793 
1637.000000	94.283209 
1636.000000	94.286958 
1635.000000	94.286367 
1634.000000	94.285684 
1633.000000	94.289799 
1632.000000	94.295518 
1631.000000	94.302234 
1630.000000	94.310091 
1629.000000	94.316777 
1628.000000	94.321758 
1627.000000	94.329275 
1626.000000	94.341835 
1625.000000	94.355883 
1624.000000	94.366184 
1623.000000	94.371162 
1622.000000	94.374158 
1621.000000	94.379265 
1620.000000	94.388789 
1619.000000	94.402729 
1618.000000	94.420106 
1617.000000	94.436624 
1616.000000	94.449346 
1615.000000	94.462342 
1614.000000	94.476592 
1613.000000	94.487132 
1612.000000	94.491823 
1611.000000	94.494513 
1610.000000	94.500175 
1609.000000	94.510903 
1608.000000	94.526127 
1607.000000	94.544499 
1606.000000	94.563236 
1605.000000	94.579714 
1604.000000	94.594221 
1603.000000	94.606977 
1602.000000	94.617567 
1601.000000	94.626403 
1600.000000	94.634865 
1599.000000	94.643589 
1598.000000	94.651563 
1597.000000	94.657978 
1596.000000	94.663061 
1595.000000	94.667323 
1594.000000	94.671022 
1593.000000	94.674875 
1592.000000	94.680366 
1591.000000	94.687879 
1590.000000	94.695407 
1589.000000	94.700751 
1588.000000	94.704672 
1587.000000	94.709590 
1586.000000	94.716247 
1585.000000	94.722153 
1584.000000	94.726078 
1583.000000	94.728744 
1582.000000	94.730143 
1581.000000	94.731050 
1580.000000	94.734034 
1579.000000	94.740269 
1578.000000	94.746567 
1577.000000	94.747796 
1576.000000	94.740714 
1575.000000	94.731130 
1574.000000	94.727467 
1573.000000	94.729505 
1572.000000	94.733440 
1571.000000	94.736831 
1570.000000	94.738299 
1569.000000	94.737673 
1568.000000	94.737786 
1567.000000	94.739678 
1566.000000	94.741061 
1565.000000	94.740235 
1564.000000	94.738549 
1563.000000	94.737767 
1562.000000	94.737981 
1561.000000	94.737522 
1560.000000	94.737044 
1559.000000	94.737192 
1558.000000	94.734822 
1557.000000	94.733521 
1556.000000	94.736152 
1555.000000	94.739887 
1554.000000	94.742175 
1553.000000	94.741759 
1552.000000	94.739862 
1551.000000	94.738118 
1550.000000	94.737833 
1549.000000	94.738618 
1548.000000	94.738872 
1547.000000	94.737896 
1546.000000	94.736094 
1545.000000	94.734865 
1544.000000	94.735475 
1543.000000	94.737739 
1542.000000	94.740567 
1541.000000	94.742682 
1540.000000	94.742488 
1539.000000	94.740008 
1538.000000	94.737818 
1537.000000	94.736952 
1536.000000	94.736099 
1535.000000	94.734745 
1534.000000	94.733173 
1533.000000	94.732009 
1532.000000	94.731401 
1531.000000	94.730735 
1530.000000	94.729758 
1529.000000	94.728843 
1528.000000	94.728463 
1527.000000	94.728791 
1526.000000	94.729495 
1525.000000	94.730189 
1524.000000	94.730745 
1523.000000	94.730990 
1522.000000	94.730809 
1521.000000	94.730286 
1520.000000	94.729737 
1519.000000	94.729340 
1518.000000	94.729070 
1517.000000	94.729177 
1516.000000	94.729714 
1515.000000	94.730357 
1514.000000	94.730771 
1513.000000	94.730839 
1512.000000	94.730584 
1511.000000	94.730096 
1510.000000	94.729615 
1509.000000	94.729534 
1508.000000	94.730882 
1507.000000	94.734603 
1506.000000	94.737482 
1505.000000	94.736837 
1504.000000	94.734999 
1503.000000	94.733240 
1502.000000	94.731874 
1501.000000	94.731710 
1500.000000	94.732385 
1499.000000	94.732329 
1498.000000	94.729952 
1497.000000	94.726213 
1496.000000	94.723601 
1495.000000	94.723622 
1494.000000	94.724969 
1493.000000	94.724594 
1492.000000	94.721122 
1491.000000	94.717162 
1490.000000	94.717681 
1489.000000	94.723295 
1488.000000	94.728428 
1487.000000	94.729006 
1486.000000	94.726102 
1485.000000	94.721020 
1484.000000	94.715682 
1483.000000	94.712561 
1482.000000	94.712735 
1481.000000	94.714861 
1480.000000	94.715611 
1479.000000	94.713526 
1478.000000	94.709993 
1477.000000	94.707953 
1476.000000	94.708812 
1475.000000	94.712256 
1474.000000	94.716413 
1473.000000	94.719383 
1472.000000	94.719689 
1471.000000	94.716910 
1470.000000	94.712885 
1469.000000	94.709254 
1468.000000	94.706693 
1467.000000	94.705492 
1466.000000	94.703916 
1465.000000	94.698297 
1464.000000	94.687777 
1463.000000	94.674030 
1462.000000	94.658419 
1461.000000	94.640756 
1460.000000	94.622099 
1459.000000	94.605131 
1458.000000	94.592546 
1457.000000	94.583753 
1456.000000	94.574953 
1455.000000	94.566888 
1454.000000	94.561349 
1453.000000	94.558534 
1452.000000	94.557741 
1451.000000	94.556057 
1450.000000	94.551654 
1449.000000	94.546417 
1448.000000	94.543237 
1447.000000	94.543155 
1446.000000	94.542612 
1445.000000	94.537851 
1444.000000	94.528979 
1443.000000	94.517951 
1442.000000	94.508083 
1441.000000	94.501352 
1440.000000	94.497148 
1439.000000	94.493029 
1438.000000	94.488564 
1437.000000	94.485800 
1436.000000	94.484079 
1435.000000	94.479482 
1434.000000	94.471142 
1433.000000	94.461925 
1432.000000	94.454397 
1431.000000	94.448621 
1430.000000	94.442998 
1429.000000	94.437143 
1428.000000	94.431824 
1427.000000	94.428429 
1426.000000	94.426640 
1425.000000	94.424964 
1424.000000	94.422082 
1423.000000	94.415858 
1422.000000	94.405292 
1421.000000	94.391804 
1420.000000	94.379745 
1419.000000	94.374160 
1418.000000	94.374518 
1417.000000	94.374900 
1416.000000	94.371199 
1415.000000	94.363212 
1414.000000	94.352394 
1413.000000	94.341166 
1412.000000	94.332140 
1411.000000	94.326224 
1410.000000	94.321856 
1409.000000	94.316823 
1408.000000	94.310265 
1407.000000	94.304676 
1406.000000	94.304384 
1405.000000	94.312237 
1404.000000	94.326757 
1403.000000	94.341890 
1402.000000	94.352807 
1401.000000	94.360055 
1400.000000	94.367937 
1399.000000	94.378181 
1398.000000	94.385027 
1397.000000	94.380438 
1396.000000	94.363779 
1395.000000	94.346440 
1394.000000	94.343308 
1393.000000	94.358679 
1392.000000	94.384455 
1391.000000	94.408896 
1390.000000	94.424837 
1389.000000	94.431622 
1388.000000	94.432910 
1387.000000	94.433244 
1386.000000	94.434492 
1385.000000	94.435813 
1384.000000	94.436611 
1383.000000	94.437280 
1382.000000	94.438893 
1381.000000	94.442399 
1380.000000	94.448277 
1379.000000	94.456812 
1378.000000	94.467605 
1377.000000	94.479409 
1376.000000	94.491165 
1375.000000	94.503464 
1374.000000	94.517756 
1373.000000	94.534425 
1372.000000	94.552306 
1371.000000	94.570403 
1370.000000	94.588375 
1369.000000	94.605798 
1368.000000	94.621297 
1367.000000	94.632658 
1366.000000	94.639148 
1365.000000	94.643027 
1364.000000	94.648543 
1363.000000	94.659093 
1362.000000	94.673883 
1361.000000	94.688275 
1360.000000	94.698334 
1359.000000	94.703818 
1358.000000	94.707837 
1357.000000	94.714808 
1356.000000	94.726628 
1355.000000	94.739872 
1354.000000	94.748135 
1353.000000	94.748530 
1352.000000	94.743745 
1351.000000	94.739066 
1350.000000	94.737819 
1349.000000	94.739633 
1348.000000	94.742374 
1347.000000	94.744226 
1346.000000	94.744110 
1345.000000	94.741020 
1344.000000	94.734660 
1343.000000	94.726884 
1342.000000	94.721415 
1341.000000	94.721131 
1340.000000	94.725391 
1339.000000	94.730511 
1338.000000	94.733730 
1337.000000	94.735766 
1336.000000	94.738189 
1335.000000	94.740235 
1334.000000	94.739882 
1333.000000	94.736976 
1332.000000	94.733888 
1331.000000	94.733356 
1330.000000	94.736110 
1329.000000	94.740330 
1328.000000	94.742730 
1327.000000	94.740828 
1326.000000	94.735194 
1325.000000	94.729835 
1324.000000	94.729518 
1323.000000	94.735607 
1322.000000	94.744385 
1321.000000	94.749772 
1320.000000	94.748315 
1319.000000	94.741920 
1318.000000	94.735845 
1317.000000	94.733925 
1316.000000	94.736087 
1315.000000	94.740010 
1314.000000	94.743572 
1313.000000	94.745315 
1312.000000	94.744110 
1311.000000	94.740251 
1310.000000	94.736509 
1309.000000	94.736226 
1308.000000	94.739660 
1307.000000	94.743522 
1306.000000	94.744573 
1305.000000	94.742814 
1304.000000	94.740808 
1303.000000	94.740870 
1302.000000	94.743395 
1301.000000	94.746661 
1300.000000	94.747627 
1299.000000	94.744222 
1298.000000	94.737870 
1297.000000	94.732944 
1296.000000	94.732834 
1295.000000	94.737116 
1294.000000	94.743000 
1293.000000	94.748073 
1292.000000	94.750768 
1291.000000	94.750083 
1290.000000	94.746701 
1289.000000	94.743149 
1288.000000	94.740959 
1287.000000	94.738710 
1286.000000	94.734717 
1285.000000	94.730333 
1284.000000	94.728459 
1283.000000	94.729816 
1282.000000	94.733000 
1281.000000	94.737232 
1280.000000	94.742065 
1279.000000	94.744800 
1278.000000	94.741882 
1277.000000	94.733845 
1276.000000	94.725787 
1275.000000	94.721677 
1274.000000	94.720910 
1273.000000	94.721781 
1272.000000	94.725106 
1271.000000	94.731742 
1270.000000	94.739037 
1269.000000	94.743158 
1268.000000	94.743744 
1267.000000	94.743446 
1266.000000	94.743753 
1265.000000	94.743459 
1264.000000	94.740431 
1263.000000	94.733336 
1262.000000	94.723162 
1261.000000	94.714340 
1260.000000	94.711584 
1259.000000	94.712750 
1258.000000	94.707861 
1257.000000	94.689671 
1256.000000	94.663382 
1255.000000	94.641594 
1254.000000	94.630373 
1253.000000	94.624834 
1252.000000	94.618232 
1251.000000	94.609803 
1250.000000	94.602334 
1249.000000	94.597337 
1248.000000	94.595547 
1247.000000	94.597577 
1246.000000	94.599629 
1245.000000	94.591610 
1244.000000	94.565679 
1243.000000	94.527964 
1242.000000	94.497854 
1241.000000	94.491840 
1240.000000	94.507920 
1239.000000	94.526959 
1238.000000	94.529645 
1237.000000	94.511470 
1236.000000	94.481525 
1235.000000	94.450172 
1234.000000	94.421101 
1233.000000	94.393911 
1232.000000	94.368342 
1231.000000	94.342540 
1230.000000	94.311253 
1229.000000	94.271162 
1228.000000	94.226901 
1227.000000	94.187281 
1226.000000	94.155146 
1225.000000	94.124058 
1224.000000	94.084910 
1223.000000	94.032496 
1222.000000	93.966160 
1221.000000	93.888411 
1220.000000	93.804298 
1219.000000	93.718967 
1218.000000	93.633793 
1217.000000	93.546165 
1216.000000	93.453248 
1215.000000	93.354140 
1214.000000	93.249077 
1213.000000	93.139324 
1212.000000	93.027314 
1211.000000	92.914242 
1210.000000	92.798637 
1209.000000	92.680591 
1208.000000	92.565216 
1207.000000	92.456497 
1206.000000	92.349398 
1205.000000	92.234972 
1204.000000	92.112777 
1203.000000	91.991207 
1202.000000	91.875687 
1201.000000	91.763792 
1200.000000	91.652433 
1199.000000	91.542237 
1198.000000	91.433160 
1197.000000	91.322579 
1196.000000	91.209853 
1195.000000	91.097166 
1194.000000	90.984745 
1193.000000	90.870756 
1192.000000	90.756282 
1191.000000	90.644086 
1190.000000	90.532311 
1189.000000	90.416670 
1188.000000	90.299338 
1187.000000	90.187506 
1186.000000	90.081625 
1185.000000	89.973279 
1184.000000	89.856577 
1183.000000	89.733327 
1182.000000	89.605183 
1181.000000	89.470102 
1180.000000	89.330022 
1179.000000	89.192647 
1178.000000	89.060159 
1177.000000	88.923519 
1176.000000	88.772750 
1175.000000	88.606630 
1174.000000	88.429309 
1173.000000	88.244933 
1172.000000	88.059000 
1171.000000	87.876459 
1170.000000	87.693908 
1169.000000	87.502114 
1168.000000	87.301540 
1167.000000	87.107931 
1166.000000	86.938710 
1165.000000	86.803019 
1164.000000	86.709492 
1163.000000	86.672475 
1162.000000	86.701697 
1161.000000	86.790951 
1160.000000	86.919889 
1159.000000	87.059450 
1158.000000	87.174820 
1157.000000	87.235803 
1156.000000	87.232290 
1155.000000	87.175602 
1154.000000	87.082234 
1153.000000	86.961604 
1152.000000	86.820943 
1151.000000	86.671514 
1150.000000	86.522128 
1149.000000	86.372580 
1148.000000	86.219728 
1147.000000	86.064685 
1146.000000	85.909267 
1145.000000	85.751162 
1144.000000	85.587386 
1143.000000	85.417951 
1142.000000	85.243514 
1141.000000	85.064986 
1140.000000	84.886832 
1139.000000	84.713553 
1138.000000	84.541707 
1137.000000	84.363740 
1136.000000	84.180493 
1135.000000	84.000049 
1134.000000	83.823001 
1133.000000	83.640360 
1132.000000	83.448678 
1131.000000	83.255488 
1130.000000	83.066171 
1129.000000	82.876764 
1128.000000	82.683610 
1127.000000	82.488816 
1126.000000	82.292378 
1125.000000	82.090242 
1124.000000	81.883809 
1123.000000	81.680053 
1122.000000	81.479095 
1121.000000	81.273529 
1120.000000	81.062854 
1119.000000	80.855745 
1118.000000	80.655541 
1117.000000	80.457523 
1116.000000	80.262434 
1115.000000	80.076554 
1114.000000	79.895524 
1113.000000	79.705268 
1112.000000	79.502719 
1111.000000	79.298079 
1110.000000	79.093473 
1109.000000	78.878610 
1108.000000	78.652179 
1107.000000	78.428359 
1106.000000	78.215782 
1105.000000	78.007272 
1104.000000	77.796020 
1103.000000	77.584362 
1102.000000	77.371171 
1101.000000	77.148451 
1100.000000	76.916539 
1099.000000	76.686357 
1098.000000	76.461398 
1097.000000	76.234813 
1096.000000	76.007215 
1095.000000	75.788192 
1094.000000	75.576037 
1093.000000	75.356256 
1092.000000	75.125713 
1091.000000	74.898833 
1090.000000	74.685439 
1089.000000	74.482486 
1088.000000	74.290803 
1087.000000	74.117267 
1086.000000	73.956008 
1085.000000	73.791129 
1084.000000	73.623450 
1083.000000	73.470338 
1082.000000	73.333328 
1081.000000	73.191389 
1080.000000	73.034306 
1079.000000	72.877861 
1078.000000	72.736968 
1077.000000	72.607483 
1076.000000	72.483472 
1075.000000	72.367518 
1074.000000	72.253275 
1073.000000	72.120656 
1072.000000	71.958017 
1071.000000	71.768001 
1070.000000	71.545589 
1069.000000	71.275773 
1068.000000	70.962752 
1067.000000	70.638080 
1066.000000	70.327693 
1065.000000	70.030711 
1064.000000	69.740091 
1063.000000	69.458140 
1062.000000	69.179301 
1061.000000	68.883404 
1060.000000	68.562545 
1059.000000	68.235818 
1058.000000	67.925266 
1057.000000	67.635267 
1056.000000	67.364117 
1055.000000	67.113236 
1054.000000	66.873779 
1053.000000	66.625833 
1052.000000	66.363534 
1051.000000	66.101976 
1050.000000	65.849616 
1049.000000	65.596132 
1048.000000	65.334848 
1047.000000	65.070859 
1046.000000	64.801572 
1045.000000	64.516275 
1044.000000	64.218944 
1043.000000	63.925474 
1042.000000	63.634644 
1041.000000	63.327643 
1040.000000	63.000994 
1039.000000	62.674696 
1038.000000	62.364370 
1037.000000	62.072225 
1036.000000	61.807368 
1035.000000	61.583980 
1034.000000	61.393897 
1033.000000	61.210040 
1032.000000	61.021851 
1031.000000	60.839745 
1030.000000	60.665086 
1029.000000	60.490076 
1028.000000	60.328671 
1027.000000	60.209396 
1026.000000	60.130548 
1025.000000	60.057096 
1024.000000	59.968784 
1023.000000	59.876723 
1022.000000	59.787013 
1021.000000	59.686507 
1020.000000	59.573749 
1019.000000	59.467362 
1018.000000	59.372557 
1017.000000	59.272698 
1016.000000	59.163545 
1015.000000	59.062425 
1014.000000	58.974314 
1013.000000	58.882609 
1012.000000	58.782837 
1011.000000	58.691888 
1010.000000	58.614190 
1009.000000	58.532435 
1008.000000	58.442209 
1007.000000	58.362931 
1006.000000	58.303511 
1005.000000	58.249026 
1004.000000	58.192215 
1003.000000	58.147509 
1002.000000	58.123478 
1001.000000	58.110840 
1000.000000	58.106013 
999.000000	 58.116594 
998.000000	 58.136356 
997.000000	 58.146261 
996.000000	 58.148127 
995.000000	 58.165740 
994.000000	 58.205149 
993.000000	 58.245816 
992.000000	 58.278464 
991.000000	 58.318817 
990.000000	 58.375042 
989.000000	 58.435134 
988.000000	 58.497176 
987.000000	 58.579772 
986.000000	 58.690429 
985.000000	 58.813571 
984.000000	 58.940844 
983.000000	 59.084845 
982.000000	 59.253214 
981.000000	 59.438005 
980.000000	 59.639996 
979.000000	 59.874484 
978.000000	 60.142415 
977.000000	 60.423219 
976.000000	 60.706459 
975.000000	 61.005461 
974.000000	 61.331268 
973.000000	 61.678178 
972.000000	 62.041943 
971.000000	 62.427219 
970.000000	 62.829937 
969.000000	 63.235943 
968.000000	 63.642841 
967.000000	 64.060713 
966.000000	 64.488076 
965.000000	 64.910433 
964.000000	 65.324488 
963.000000	 65.739196 
962.000000	 66.151253 
961.000000	 66.545342 
960.000000	 66.921261 
959.000000	 67.295099 
958.000000	 67.670044 
957.000000	 68.030625 
956.000000	 68.369422 
955.000000	 68.695002 
954.000000	 69.010114 
953.000000	 69.306251 
952.000000	 69.583323 
951.000000	 69.851013 
950.000000	 70.107294 
949.000000	 70.339081 
948.000000	 70.547011 
947.000000	 70.745427 
946.000000	 70.934775 
945.000000	 71.098813 
944.000000	 71.233537 
943.000000	 71.354836 
942.000000	 71.473287 
941.000000	 71.585444 
940.000000	 71.694537 
939.000000	 71.813449 
938.000000	 71.939717 
937.000000	 72.052469 
936.000000	 72.143331 
935.000000	 72.228817 
934.000000	 72.324821 
933.000000	 72.430070 
932.000000	 72.541143 
931.000000	 72.661302 
930.000000	 72.786986 
929.000000	 72.906794 
928.000000	 73.021176 
927.000000	 73.143492 
926.000000	 73.276104 
925.000000	 73.404988 
924.000000	 73.521780 
923.000000	 73.630368 
922.000000	 73.729046 
921.000000	 73.809584 
920.000000	 73.878250 
919.000000	 73.953663 
918.000000	 74.037864 
917.000000	 74.113023 
916.000000	 74.173579 
915.000000	 74.238505 
914.000000	 74.324719 
913.000000	 74.432136 
912.000000	 74.562736 
911.000000	 74.729647 
910.000000	 74.936479 
909.000000	 75.169563 
908.000000	 75.421363 
907.000000	 75.702088 
906.000000	 76.019347 
905.000000	 76.365863 
904.000000	 76.734821 
903.000000	 77.127825 
902.000000	 77.539815 
901.000000	 77.954486 
900.000000	 78.362916 
899.000000	 78.771659 
898.000000	 79.186861 
897.000000	 79.603922 
896.000000	 80.014754 
895.000000	 80.410909 
894.000000	 80.780479 
893.000000	 81.118965 
892.000000	 81.442515 
891.000000	 81.772030 
890.000000	 82.103625 
889.000000	 82.413643 
888.000000	 82.693509 
887.000000	 82.959518 
886.000000	 83.226310 
885.000000	 83.491799 
884.000000	 83.752968 
883.000000	 84.016001 
882.000000	 84.284277 
881.000000	 84.555163 
880.000000	 84.835460 
879.000000	 85.141691 
878.000000	 85.477009 
877.000000	 85.823305 
876.000000	 86.161947 
875.000000	 86.487990 
874.000000	 86.802767 
873.000000	 87.110467 
872.000000	 87.424366 
871.000000	 87.757898 
870.000000	 88.105603 
869.000000	 88.448897 
868.000000	 88.781383 
867.000000	 89.110831 
866.000000	 89.435911 
865.000000	 89.741669 
864.000000	 90.022945 
863.000000	 90.293624 
862.000000	 90.565226 
861.000000	 90.832104 
860.000000	 91.086460 
859.000000	 91.333700 
858.000000	 91.582937 
857.000000	 91.832520 
856.000000	 92.072856 
855.000000	 92.294924 
854.000000	 92.491015 
853.000000	 92.657315 
852.000000	 92.801808 
851.000000	 92.940509 
850.000000	 93.080051 
849.000000	 93.211704 
848.000000	 93.325255 
847.000000	 93.417667 
846.000000	 93.484770 
845.000000	 93.518724 
844.000000	 93.521502 
843.000000	 93.508132 
842.000000	 93.485813 
841.000000	 93.439368 
840.000000	 93.348636 
839.000000	 93.213648 
838.000000	 93.054125 
837.000000	 92.891542 
836.000000	 92.740560 
835.000000	 92.608856 
834.000000	 92.492524 
833.000000	 92.377981 
832.000000	 92.261822 
831.000000	 92.165691 
830.000000	 92.119521 
829.000000	 92.130457 
828.000000	 92.176817 
827.000000	 92.231067 
826.000000	 92.281108 
825.000000	 92.330615 
824.000000	 92.386532 
823.000000	 92.448256 
822.000000	 92.505448 
821.000000	 92.545088 
820.000000	 92.560213 
819.000000	 92.550274 
818.000000	 92.514355 
817.000000	 92.446885 
816.000000	 92.338799 
815.000000	 92.179660 
814.000000	 91.959382 
813.000000	 91.670606 
812.000000	 91.307579 
811.000000	 90.859179 
810.000000	 90.306385 
809.000000	 89.633864 
808.000000	 88.844623 
807.000000	 87.959177 
806.000000	 87.003081 
805.000000	 86.003477 
804.000000	 84.995216 
803.000000	 84.016328 
802.000000	 83.095690 
801.000000	 82.259297 
800.000000	 81.547708 
799.000000	 81.005838 
798.000000	 80.651613 
797.000000	 80.474006 
796.000000	 80.460105 
795.000000	 80.596227 
794.000000	 80.840842 
793.000000	 81.128719 
792.000000	 81.412656 
791.000000	 81.678927 
790.000000	 81.917342 
789.000000	 82.100764 
788.000000	 82.200409 
787.000000	 82.199084 
786.000000	 82.083476 
785.000000	 81.846567 
784.000000	 81.508307 
783.000000	 81.116080 
782.000000	 80.715423 
781.000000	 80.335870 
780.000000	 80.009289 
779.000000	 79.777594 
778.000000	 79.670290 
777.000000	 79.692643 
776.000000	 79.841767 
775.000000	 80.111170 
774.000000	 80.472543 
773.000000	 80.878405 
772.000000	 81.294420 
771.000000	 81.710458 
770.000000	 82.114490 
769.000000	 82.479521 
768.000000	 82.787116 
767.000000	 83.043990 
766.000000	 83.264198 
765.000000	 83.452243 
764.000000	 83.614286 
763.000000	 83.767881 
762.000000	 83.925617 
761.000000	 84.080787 
760.000000	 84.220857 
759.000000	 84.345276 
758.000000	 84.462273 
757.000000	 84.579801 
756.000000	 84.707127 
755.000000	 84.852697 
754.000000	 85.012012 
753.000000	 85.169203 
752.000000	 85.318084 
751.000000	 85.470504 
750.000000	 85.637956 
749.000000	 85.817598 
748.000000	 86.003716 
747.000000	 86.200622 
746.000000	 86.415109 
745.000000	 86.646132 
744.000000	 86.890920 
743.000000	 87.153625 
742.000000	 87.439956 
741.000000	 87.747663 
740.000000	 88.065579 
739.000000	 88.377128 
738.000000	 88.665461 
737.000000	 88.923846 
736.000000	 89.161509 
735.000000	 89.391466 
734.000000	 89.614022 
733.000000	 89.819995 
732.000000	 90.005499 
731.000000	 90.171937 
730.000000	 90.315307 
729.000000	 90.430460 
728.000000	 90.526831 
727.000000	 90.624068 
726.000000	 90.728145 
725.000000	 90.827892 
724.000000	 90.920050 
723.000000	 91.022636 
722.000000	 91.155818 
721.000000	 91.319052 
720.000000	 91.491575 
719.000000	 91.646780 
718.000000	 91.765670 
717.000000	 91.849718 
716.000000	 91.925012 
715.000000	 92.021545 
714.000000	 92.140511 
713.000000	 92.249738 
712.000000	 92.315220 
711.000000	 92.327621 
710.000000	 92.298145 
709.000000	 92.244108 
708.000000	 92.184704 
707.000000	 92.135043 
706.000000	 92.089115 
705.000000	 92.016356 
704.000000	 91.883226 
703.000000	 91.670144 
702.000000	 91.366429 
701.000000	 90.962685 
700.000000	 90.456796 
699.000000	 89.863756 
698.000000	 89.219602 
697.000000	 88.590657 
696.000000	 88.077415 
695.000000	 87.779052 
694.000000	 87.737520 
693.000000	 87.918183 
692.000000	 88.241830 
691.000000	 88.630165 
690.000000	 89.026207 
689.000000	 89.394653 
688.000000	 89.719458 
687.000000	 89.998654 
686.000000	 90.239133 
685.000000	 90.455605 
684.000000	 90.665975 
683.000000	 90.876429 
682.000000	 91.072106 
681.000000	 91.235383 
680.000000	 91.374399 
679.000000	 91.521680 
678.000000	 91.699811 
677.000000	 91.896464 
676.000000	 92.084765 
675.000000	 92.257899 
674.000000	 92.428167 
673.000000	 92.603087 
672.000000	 92.780735 
671.000000	 92.964199 
670.000000	 93.164102 
669.000000	 93.381154 
668.000000	 93.570114 
667.000000	 93.688007 
666.000000	 93.760789 
665.000000	 93.825073 
664.000000	 93.902920 
663.000000	 94.011476 
662.000000	 94.143530 
661.000000	 94.272048 
660.000000	 94.380969 
659.000000	 94.475877 
658.000000	 94.553200 
657.000000	 94.590492 
656.000000	 94.587962 
655.000000	 94.589074 
654.000000	 94.625938 
653.000000	 94.675297 
652.000000	 94.702686 
651.000000	 94.718006 
650.000000	 94.751946 

