PE IR                   SPECTRUM    ASCII       PEDS        1.60        
  -1
~SP.SP
22/12/06
11:56:43.00
23/01/09
14:29:25.00
Administrator

650.000000
4









FRONTIER FT-IR,CPU32 MAIN 00.09.9951 07-SEPTEMBER-2011 11:49:41
MIR TGS
MIR
OPTKBR
90694
0.200000

4.000000
STRONG
RATIO
SPECTRUM
MAGNITUDE
MIRACLE ATR
DOUBLE

COMBINED


0


#HDR
-1
-1
#GR
CM-1
%T
0.00002384185791015625
0.0
4000.000000
-1.000000
3351
8
96.550920
66.019160
#DATA
4000.000000	96.537895 
3999.000000	96.537128 
3998.000000	96.536039 
3997.000000	96.535364 
3996.000000	96.535668 
3995.000000	96.537187 
3994.000000	96.539182 
3993.000000	96.540311 
3992.000000	96.539808 
3991.000000	96.537912 
3990.000000	96.536061 
3989.000000	96.535627 
3988.000000	96.536854 
3987.000000	96.538822 
3986.000000	96.540242 
3985.000000	96.540405 
3984.000000	96.539344 
3983.000000	96.537551 
3982.000000	96.535662 
3981.000000	96.534200 
3980.000000	96.533418 
3979.000000	96.533305 
3978.000000	96.533625 
3977.000000	96.533875 
3976.000000	96.533346 
3975.000000	96.531505 
3974.000000	96.528552 
3973.000000	96.525565 
3972.000000	96.523823 
3971.000000	96.523932 
3970.000000	96.525646 
3969.000000	96.528238 
3968.000000	96.530950 
3967.000000	96.533211 
3966.000000	96.534633 
3965.000000	96.534986 
3964.000000	96.534312 
3963.000000	96.533017 
3962.000000	96.531818 
3961.000000	96.531412 
3960.000000	96.531996 
3959.000000	96.533190 
3958.000000	96.534438 
3957.000000	96.535469 
3956.000000	96.536336 
3955.000000	96.537089 
3954.000000	96.537697 
3953.000000	96.538212 
3952.000000	96.538774 
3951.000000	96.539320 
3950.000000	96.539435 
3949.000000	96.538720 
3948.000000	96.537267 
3947.000000	96.535560 
3946.000000	96.534094 
3945.000000	96.533129 
3944.000000	96.532674 
3943.000000	96.532653 
3942.000000	96.532888 
3941.000000	96.532974 
3940.000000	96.532410 
3939.000000	96.531126 
3938.000000	96.529792 
3937.000000	96.529170 
3936.000000	96.529345 
3935.000000	96.529777 
3934.000000	96.530015 
3933.000000	96.530170 
3932.000000	96.530562 
3931.000000	96.531241 
3930.000000	96.532022 
3929.000000	96.532749 
3928.000000	96.533304 
3927.000000	96.533477 
3926.000000	96.533095 
3925.000000	96.532380 
3924.000000	96.531974 
3923.000000	96.532206 
3922.000000	96.532575 
3921.000000	96.532385 
3920.000000	96.531718 
3919.000000	96.531357 
3918.000000	96.531785 
3917.000000	96.532606 
3916.000000	96.532997 
3915.000000	96.532556 
3914.000000	96.531550 
3913.000000	96.530615 
3912.000000	96.530254 
3911.000000	96.530353 
3910.000000	96.530223 
3909.000000	96.529197 
3908.000000	96.527349 
3907.000000	96.525571 
3906.000000	96.524704 
3905.000000	96.524588 
3904.000000	96.524113 
3903.000000	96.522438 
3902.000000	96.519972 
3901.000000	96.518019 
3900.000000	96.517585 
3899.000000	96.518686 
3898.000000	96.520453 
3897.000000	96.521698 
3896.000000	96.521689 
3895.000000	96.520583 
3894.000000	96.518937 
3893.000000	96.516805 
3892.000000	96.513797 
3891.000000	96.510216 
3890.000000	96.507573 
3889.000000	96.506709 
3888.000000	96.506769 
3887.000000	96.506510 
3886.000000	96.505469 
3885.000000	96.504104 
3884.000000	96.503270 
3883.000000	96.502939 
3882.000000	96.502685 
3881.000000	96.503055 
3880.000000	96.504795 
3879.000000	96.507592 
3878.000000	96.510032 
3877.000000	96.510694 
3876.000000	96.509653 
3875.000000	96.507909 
3874.000000	96.505939 
3873.000000	96.503634 
3872.000000	96.500504 
3871.000000	96.496224 
3870.000000	96.491971 
3869.000000	96.490322 
3868.000000	96.492589 
3867.000000	96.496639 
3866.000000	96.499133 
3865.000000	96.499017 
3864.000000	96.497335 
3863.000000	96.495474 
3862.000000	96.494385 
3861.000000	96.494622 
3860.000000	96.496674 
3859.000000	96.500477 
3858.000000	96.505519 
3857.000000	96.511305 
3856.000000	96.517225 
3855.000000	96.521555 
3854.000000	96.521598 
3853.000000	96.517040 
3852.000000	96.512574 
3851.000000	96.511052 
3850.000000	96.510258 
3849.000000	96.509632 
3848.000000	96.511137 
3847.000000	96.515422 
3846.000000	96.520518 
3845.000000	96.523505 
3844.000000	96.523034 
3843.000000	96.520110 
3842.000000	96.517071 
3841.000000	96.515353 
3840.000000	96.514671 
3839.000000	96.514262 
3838.000000	96.514262 
3837.000000	96.515205 
3836.000000	96.516733 
3835.000000	96.517548 
3834.000000	96.516970 
3833.000000	96.515809 
3832.000000	96.515493 
3831.000000	96.516699 
3830.000000	96.518793 
3829.000000	96.520306 
3828.000000	96.520085 
3827.000000	96.517772 
3826.000000	96.513847 
3825.000000	96.509328 
3824.000000	96.504918 
3823.000000	96.500705 
3822.000000	96.496680 
3821.000000	96.493138 
3820.000000	96.492327 
3819.000000	96.496271 
3818.000000	96.502719 
3817.000000	96.507865 
3816.000000	96.509967 
3815.000000	96.510318 
3814.000000	96.511591 
3813.000000	96.513979 
3812.000000	96.515956 
3811.000000	96.517185 
3810.000000	96.518038 
3809.000000	96.518302 
3808.000000	96.517207 
3807.000000	96.514469 
3806.000000	96.511316 
3805.000000	96.509325 
3804.000000	96.508213 
3803.000000	96.506663 
3802.000000	96.503676 
3801.000000	96.499333 
3800.000000	96.495967 
3799.000000	96.495155 
3798.000000	96.496190 
3797.000000	96.498586 
3796.000000	96.501919 
3795.000000	96.504897 
3794.000000	96.505978 
3793.000000	96.504500 
3792.000000	96.501296 
3791.000000	96.498208 
3790.000000	96.496680 
3789.000000	96.497034 
3788.000000	96.498767 
3787.000000	96.500963 
3786.000000	96.502563 
3785.000000	96.502850 
3784.000000	96.502066 
3783.000000	96.501366 
3782.000000	96.501828 
3781.000000	96.503593 
3780.000000	96.505816 
3779.000000	96.507337 
3778.000000	96.507740 
3777.000000	96.507208 
3776.000000	96.505808 
3775.000000	96.503672 
3774.000000	96.501507 
3773.000000	96.500292 
3772.000000	96.500620 
3771.000000	96.502503 
3770.000000	96.505672 
3769.000000	96.509752 
3768.000000	96.513742 
3767.000000	96.515684 
3766.000000	96.514284 
3765.000000	96.510523 
3764.000000	96.506741 
3763.000000	96.504091 
3762.000000	96.501866 
3761.000000	96.499726 
3760.000000	96.498983 
3759.000000	96.500573 
3758.000000	96.503606 
3757.000000	96.506669 
3756.000000	96.509582 
3755.000000	96.512603 
3754.000000	96.515111 
3753.000000	96.516523 
3752.000000	96.517650 
3751.000000	96.518995 
3750.000000	96.519049 
3749.000000	96.516791 
3748.000000	96.512962 
3747.000000	96.509302 
3746.000000	96.507488 
3745.000000	96.506276 
3744.000000	96.502395 
3743.000000	96.497558 
3742.000000	96.492891 
3741.000000	96.485259 
3740.000000	96.476978 
3739.000000	96.472390 
3738.000000	96.469281 
3737.000000	96.461711 
3736.000000	96.450027 
3735.000000	96.443129 
3734.000000	96.447336 
3733.000000	96.457843 
3732.000000	96.465367 
3731.000000	96.466424 
3730.000000	96.462000 
3729.000000	96.452563 
3728.000000	96.439008 
3727.000000	96.425201 
3726.000000	96.415872 
3725.000000	96.411676 
3724.000000	96.407853 
3723.000000	96.399874 
3722.000000	96.388838 
3721.000000	96.379239 
3720.000000	96.373196 
3719.000000	96.368435 
3718.000000	96.361477 
3717.000000	96.351371 
3716.000000	96.340062 
3715.000000	96.329168 
3714.000000	96.318051 
3713.000000	96.304679 
3712.000000	96.287169 
3711.000000	96.265576 
3710.000000	96.242903 
3709.000000	96.222283 
3708.000000	96.205142 
3707.000000	96.192440 
3706.000000	96.184167 
3705.000000	96.177392 
3704.000000	96.166652 
3703.000000	96.147881 
3702.000000	96.122337 
3701.000000	96.096509 
3700.000000	96.076498 
3699.000000	96.062882 
3698.000000	96.051814 
3697.000000	96.039904 
3696.000000	96.026823 
3695.000000	96.014220 
3694.000000	96.003855 
3693.000000	95.997014 
3692.000000	95.993680 
3691.000000	95.990056 
3690.000000	95.979537 
3689.000000	95.959867 
3688.000000	95.938328 
3687.000000	95.923353 
3686.000000	95.914235 
3685.000000	95.904842 
3684.000000	95.891578 
3683.000000	95.874930 
3682.000000	95.856241 
3681.000000	95.835288 
3680.000000	95.811593 
3679.000000	95.787679 
3678.000000	95.767561 
3677.000000	95.751803 
3676.000000	95.735669 
3675.000000	95.716273 
3674.000000	95.698885 
3673.000000	95.684625 
3672.000000	95.665992 
3671.000000	95.639087 
3670.000000	95.605639 
3669.000000	95.571746 
3668.000000	95.544894 
3667.000000	95.524706 
3666.000000	95.505338 
3665.000000	95.482800 
3664.000000	95.455919 
3663.000000	95.426312 
3662.000000	95.397582 
3661.000000	95.372512 
3660.000000	95.351411 
3659.000000	95.333296 
3658.000000	95.317176 
3657.000000	95.301379 
3656.000000	95.282509 
3655.000000	95.258266 
3654.000000	95.228698 
3653.000000	95.196340 
3652.000000	95.167475 
3651.000000	95.147231 
3650.000000	95.131546 
3649.000000	95.112088 
3648.000000	95.090400 
3647.000000	95.074085 
3646.000000	95.064023 
3645.000000	95.055061 
3644.000000	95.042859 
3643.000000	95.026175 
3642.000000	95.005467 
3641.000000	94.981629 
3640.000000	94.956459 
3639.000000	94.932659 
3638.000000	94.912495 
3637.000000	94.895857 
3636.000000	94.879222 
3635.000000	94.857542 
3634.000000	94.828596 
3633.000000	94.796303 
3632.000000	94.769249 
3631.000000	94.756138 
3630.000000	94.758991 
3629.000000	94.765664 
3628.000000	94.760626 
3627.000000	94.744230 
3626.000000	94.724027 
3625.000000	94.706236 
3624.000000	94.695610 
3623.000000	94.691687 
3622.000000	94.692368 
3621.000000	94.699883 
3620.000000	94.718380 
3619.000000	94.745867 
3618.000000	94.774171 
3617.000000	94.797438 
3616.000000	94.816032 
3615.000000	94.833984 
3614.000000	94.854173 
3613.000000	94.876253 
3612.000000	94.899050 
3611.000000	94.922381 
3610.000000	94.946618 
3609.000000	94.971957 
3608.000000	94.997076 
3607.000000	95.019386 
3606.000000	95.036755 
3605.000000	95.048662 
3604.000000	95.056829 
3603.000000	95.064387 
3602.000000	95.073724 
3601.000000	95.085682 
3600.000000	95.099721 
3599.000000	95.113588 
3598.000000	95.123439 
3597.000000	95.127183 
3596.000000	95.126921 
3595.000000	95.126889 
3594.000000	95.129620 
3593.000000	95.134927 
3592.000000	95.141861 
3591.000000	95.151175 
3590.000000	95.164946 
3589.000000	95.182834 
3588.000000	95.199321 
3587.000000	95.207846 
3586.000000	95.207332 
3585.000000	95.200570 
3584.000000	95.190554 
3583.000000	95.181100 
3582.000000	95.175865 
3581.000000	95.175676 
3580.000000	95.177841 
3579.000000	95.178474 
3578.000000	95.175472 
3577.000000	95.169754 
3576.000000	95.163513 
3575.000000	95.157344 
3574.000000	95.149834 
3573.000000	95.139876 
3572.000000	95.128648 
3571.000000	95.118970 
3570.000000	95.113392 
3569.000000	95.112382 
3568.000000	95.113787 
3567.000000	95.114329 
3566.000000	95.112758 
3565.000000	95.110269 
3564.000000	95.107953 
3563.000000	95.106331 
3562.000000	95.105165 
3561.000000	95.103003 
3560.000000	95.098909 
3559.000000	95.094165 
3558.000000	95.090848 
3557.000000	95.088989 
3556.000000	95.086415 
3555.000000	95.081129 
3554.000000	95.073081 
3553.000000	95.063619 
3552.000000	95.054135 
3551.000000	95.045618 
3550.000000	95.038921 
3549.000000	95.034605 
3548.000000	95.032345 
3547.000000	95.030840 
3546.000000	95.029154 
3545.000000	95.027952 
3544.000000	95.028198 
3543.000000	95.029033 
3542.000000	95.028200 
3541.000000	95.024381 
3540.000000	95.018312 
3539.000000	95.011907 
3538.000000	95.006757 
3537.000000	95.003217 
3536.000000	95.000648 
3535.000000	94.998101 
3534.000000	94.994870 
3533.000000	94.990745 
3532.000000	94.985945 
3531.000000	94.980912 
3530.000000	94.976059 
3529.000000	94.971642 
3528.000000	94.967703 
3527.000000	94.964044 
3526.000000	94.960330 
3525.000000	94.956335 
3524.000000	94.952091 
3523.000000	94.947791 
3522.000000	94.943630 
3521.000000	94.939757 
3520.000000	94.936231 
3519.000000	94.932901 
3518.000000	94.929385 
3517.000000	94.925387 
3516.000000	94.921003 
3515.000000	94.916627 
3514.000000	94.912512 
3513.000000	94.908526 
3512.000000	94.904343 
3511.000000	94.899827 
3510.000000	94.895189 
3509.000000	94.890794 
3508.000000	94.886768 
3507.000000	94.882802 
3506.000000	94.878392 
3505.000000	94.873326 
3504.000000	94.867962 
3503.000000	94.862997 
3502.000000	94.858787 
3501.000000	94.855001 
3500.000000	94.850970 
3499.000000	94.846397 
3498.000000	94.841615 
3497.000000	94.837248 
3496.000000	94.833626 
3495.000000	94.830472 
3494.000000	94.827043 
3493.000000	94.822815 
3492.000000	94.817967 
3491.000000	94.813198 
3490.000000	94.809044 
3489.000000	94.805471 
3488.000000	94.802126 
3487.000000	94.798759 
3486.000000	94.795240 
3485.000000	94.791338 
3484.000000	94.786796 
3483.000000	94.781619 
3482.000000	94.776142 
3481.000000	94.770762 
3480.000000	94.765695 
3479.000000	94.760980 
3478.000000	94.756517 
3477.000000	94.752062 
3476.000000	94.747328 
3475.000000	94.742226 
3474.000000	94.737017 
3473.000000	94.732109 
3472.000000	94.727600 
3471.000000	94.723051 
3470.000000	94.717889 
3469.000000	94.712083 
3468.000000	94.706364 
3467.000000	94.701638 
3466.000000	94.698106 
3465.000000	94.694919 
3464.000000	94.690783 
3463.000000	94.685005 
3462.000000	94.677982 
3461.000000	94.670855 
3460.000000	94.664662 
3459.000000	94.659781 
3458.000000	94.655919 
3457.000000	94.652351 
3456.000000	94.648296 
3455.000000	94.643367 
3454.000000	94.637756 
3453.000000	94.631929 
3452.000000	94.626052 
3451.000000	94.619840 
3450.000000	94.613107 
3449.000000	94.606333 
3448.000000	94.600467 
3447.000000	94.596097 
3446.000000	94.592782 
3445.000000	94.589131 
3444.000000	94.583550 
3443.000000	94.575208 
3442.000000	94.564809 
3441.000000	94.554632 
3440.000000	94.547020 
3439.000000	94.542462 
3438.000000	94.539134 
3437.000000	94.534578 
3436.000000	94.528069 
3435.000000	94.520923 
3434.000000	94.514741 
3433.000000	94.510067 
3432.000000	94.506758 
3431.000000	94.504803 
3430.000000	94.504074 
3429.000000	94.503654 
3428.000000	94.502142 
3427.000000	94.498840 
3426.000000	94.494392 
3425.000000	94.490153 
3424.000000	94.486921 
3423.000000	94.484238 
3422.000000	94.480957 
3421.000000	94.476576 
3420.000000	94.471937 
3419.000000	94.468449 
3418.000000	94.466643 
3417.000000	94.465586 
3416.000000	94.463585 
3415.000000	94.459496 
3414.000000	94.453611 
3413.000000	94.447641 
3412.000000	94.443616 
3411.000000	94.442309 
3410.000000	94.442616 
3409.000000	94.442537 
3408.000000	94.440967 
3407.000000	94.438415 
3406.000000	94.436098 
3405.000000	94.434608 
3404.000000	94.433437 
3403.000000	94.431513 
3402.000000	94.428238 
3401.000000	94.424287 
3400.000000	94.421415 
3399.000000	94.421057 
3398.000000	94.423007 
3397.000000	94.425449 
3396.000000	94.426467 
3395.000000	94.425641 
3394.000000	94.424010 
3393.000000	94.422894 
3392.000000	94.422853 
3391.000000	94.423569 
3390.000000	94.424296 
3389.000000	94.424276 
3388.000000	94.423052 
3387.000000	94.420731 
3386.000000	94.418013 
3385.000000	94.415765 
3384.000000	94.414472 
3383.000000	94.414202 
3382.000000	94.415017 
3381.000000	94.417082 
3380.000000	94.420133 
3379.000000	94.423071 
3378.000000	94.424562 
3377.000000	94.424167 
3376.000000	94.422749 
3375.000000	94.421788 
3374.000000	94.422311 
3373.000000	94.424510 
3372.000000	94.427958 
3371.000000	94.431828 
3370.000000	94.435070 
3369.000000	94.436803 
3368.000000	94.436826 
3367.000000	94.435758 
3366.000000	94.434642 
3365.000000	94.434382 
3364.000000	94.435488 
3363.000000	94.438153 
3362.000000	94.442223 
3361.000000	94.447114 
3360.000000	94.451949 
3359.000000	94.455951 
3358.000000	94.458824 
3357.000000	94.460798 
3356.000000	94.462423 
3355.000000	94.464153 
3354.000000	94.465982 
3353.000000	94.467542 
3352.000000	94.468667 
3351.000000	94.469823 
3350.000000	94.471800 
3349.000000	94.474908 
3348.000000	94.478584 
3347.000000	94.481939 
3346.000000	94.484683 
3345.000000	94.487318 
3344.000000	94.490451 
3343.000000	94.494057 
3342.000000	94.497466 
3341.000000	94.500036 
3340.000000	94.501758 
3339.000000	94.503305 
3338.000000	94.505544 
3337.000000	94.508909 
3336.000000	94.513143 
3335.000000	94.517437 
3334.000000	94.520965 
3333.000000	94.523456 
3332.000000	94.525333 
3331.000000	94.527459 
3330.000000	94.530548 
3329.000000	94.534648 
3328.000000	94.539055 
3327.000000	94.542788 
3326.000000	94.545394 
3325.000000	94.547309 
3324.000000	94.549412 
3323.000000	94.552196 
3322.000000	94.555365 
3321.000000	94.558186 
3320.000000	94.560197 
3319.000000	94.561585 
3318.000000	94.562951 
3317.000000	94.564692 
3316.000000	94.566661 
3315.000000	94.568402 
3314.000000	94.569624 
3313.000000	94.570400 
3312.000000	94.571092 
3311.000000	94.572284 
3310.000000	94.574712 
3309.000000	94.578825 
3308.000000	94.584189 
3307.000000	94.589497 
3306.000000	94.593564 
3305.000000	94.596376 
3304.000000	94.598860 
3303.000000	94.601722 
3302.000000	94.604690 
3301.000000	94.607052 
3300.000000	94.608656 
3299.000000	94.610068 
3298.000000	94.611943 
3297.000000	94.614517 
3296.000000	94.617711 
3295.000000	94.621332 
3294.000000	94.624981 
3293.000000	94.627988 
3292.000000	94.629812 
3291.000000	94.630547 
3290.000000	94.631059 
3289.000000	94.632418 
3288.000000	94.635117 
3287.000000	94.638860 
3286.000000	94.642815 
3285.000000	94.646175 
3284.000000	94.648607 
3283.000000	94.650385 
3282.000000	94.652249 
3281.000000	94.654910 
3280.000000	94.658465 
3279.000000	94.662319 
3278.000000	94.665829 
3277.000000	94.668967 
3276.000000	94.672201 
3275.000000	94.675861 
3274.000000	94.679824 
3273.000000	94.683766 
3272.000000	94.687497 
3271.000000	94.690974 
3270.000000	94.694189 
3269.000000	94.697236 
3268.000000	94.700393 
3267.000000	94.703928 
3266.000000	94.707800 
3265.000000	94.711623 
3264.000000	94.715039 
3263.000000	94.718052 
3262.000000	94.721003 
3261.000000	94.724218 
3260.000000	94.727754 
3259.000000	94.731447 
3258.000000	94.735110 
3257.000000	94.738696 
3256.000000	94.742291 
3255.000000	94.746000 
3254.000000	94.749849 
3253.000000	94.753766 
3252.000000	94.757607 
3251.000000	94.761236 
3250.000000	94.764623 
3249.000000	94.767893 
3248.000000	94.771257 
3247.000000	94.774825 
3246.000000	94.778508 
3245.000000	94.782118 
3244.000000	94.785565 
3243.000000	94.788932 
3242.000000	94.792391 
3241.000000	94.796036 
3240.000000	94.799812 
3239.000000	94.803581 
3238.000000	94.807252 
3237.000000	94.810832 
3236.000000	94.814395 
3235.000000	94.818027 
3234.000000	94.821774 
3233.000000	94.825623 
3232.000000	94.829535 
3231.000000	94.833456 
3230.000000	94.837350 
3229.000000	94.841223 
3228.000000	94.845138 
3227.000000	94.849163 
3226.000000	94.853307 
3225.000000	94.857501 
3224.000000	94.861642 
3223.000000	94.865685 
3222.000000	94.869664 
3221.000000	94.873700 
3220.000000	94.877894 
3219.000000	94.882242 
3218.000000	94.886641 
3217.000000	94.890980 
3216.000000	94.895227 
3215.000000	94.899429 
3214.000000	94.903671 
3213.000000	94.908036 
3212.000000	94.912572 
3211.000000	94.917270 
3210.000000	94.922064 
3209.000000	94.926875 
3208.000000	94.931674 
3207.000000	94.936469 
3206.000000	94.941270 
3205.000000	94.946057 
3204.000000	94.950797 
3203.000000	94.955487 
3202.000000	94.960165 
3201.000000	94.964895 
3200.000000	94.969734 
3199.000000	94.974687 
3198.000000	94.979715 
3197.000000	94.984753 
3196.000000	94.989757 
3195.000000	94.994722 
3194.000000	94.999667 
3193.000000	95.004618 
3192.000000	95.009587 
3191.000000	95.014568 
3190.000000	95.019547 
3189.000000	95.024513 
3188.000000	95.029470 
3187.000000	95.034434 
3186.000000	95.039418 
3185.000000	95.044430 
3184.000000	95.049468 
3183.000000	95.054520 
3182.000000	95.059571 
3181.000000	95.064603 
3180.000000	95.069615 
3179.000000	95.074627 
3178.000000	95.079646 
3177.000000	95.084670 
3176.000000	95.089689 
3175.000000	95.094696 
3174.000000	95.099696 
3173.000000	95.104696 
3172.000000	95.109693 
3171.000000	95.114679 
3170.000000	95.119653 
3169.000000	95.124616 
3168.000000	95.129577 
3167.000000	95.134549 
3166.000000	95.139539 
3165.000000	95.144544 
3164.000000	95.149566 
3163.000000	95.154618 
3162.000000	95.159699 
3161.000000	95.164780 
3160.000000	95.169826 
3159.000000	95.174828 
3158.000000	95.179808 
3157.000000	95.184789 
3156.000000	95.189774 
3155.000000	95.194746 
3154.000000	95.199702 
3153.000000	95.204680 
3152.000000	95.209731 
3151.000000	95.214847 
3150.000000	95.219935 
3149.000000	95.224904 
3148.000000	95.229771 
3147.000000	95.234673 
3146.000000	95.239753 
3145.000000	95.245047 
3144.000000	95.250463 
3143.000000	95.255774 
3142.000000	95.260752 
3141.000000	95.265368 
3140.000000	95.269787 
3139.000000	95.274252 
3138.000000	95.278891 
3137.000000	95.283684 
3136.000000	95.288547 
3135.000000	95.293384 
3134.000000	95.298127 
3133.000000	95.302781 
3132.000000	95.307424 
3131.000000	95.312142 
3130.000000	95.316943 
3129.000000	95.321754 
3128.000000	95.326482 
3127.000000	95.331101 
3126.000000	95.335659 
3125.000000	95.340210 
3124.000000	95.344766 
3123.000000	95.349291 
3122.000000	95.353741 
3121.000000	95.358101 
3120.000000	95.362396 
3119.000000	95.366675 
3118.000000	95.370970 
3117.000000	95.375283 
3116.000000	95.379602 
3115.000000	95.383910 
3114.000000	95.388191 
3113.000000	95.392440 
3112.000000	95.396663 
3111.000000	95.400889 
3110.000000	95.405152 
3109.000000	95.409461 
3108.000000	95.413767 
3107.000000	95.417989 
3106.000000	95.422080 
3105.000000	95.426101 
3104.000000	95.430213 
3103.000000	95.434557 
3102.000000	95.439128 
3101.000000	95.443692 
3100.000000	95.447974 
3099.000000	95.451887 
3098.000000	95.455670 
3097.000000	95.459597 
3096.000000	95.463519 
3095.000000	95.466968 
3094.000000	95.469843 
3093.000000	95.472736 
3092.000000	95.476309 
3091.000000	95.480597 
3090.000000	95.485220 
3089.000000	95.490010 
3088.000000	95.495005 
3087.000000	95.499982 
3086.000000	95.504374 
3085.000000	95.507732 
3084.000000	95.510136 
3083.000000	95.512131 
3082.000000	95.514333 
3081.000000	95.517150 
3080.000000	95.520856 
3079.000000	95.525832 
3078.000000	95.532465 
3077.000000	95.540529 
3076.000000	95.548777 
3075.000000	95.555561 
3074.000000	95.560015 
3073.000000	95.562541 
3072.000000	95.564296 
3071.000000	95.566471 
3070.000000	95.569779 
3069.000000	95.573887 
3068.000000	95.577189 
3067.000000	95.577906 
3066.000000	95.575932 
3065.000000	95.573234 
3064.000000	95.572199 
3063.000000	95.573943 
3062.000000	95.578449 
3061.000000	95.585363 
3060.000000	95.593737 
3059.000000	95.601598 
3058.000000	95.607107 
3057.000000	95.610417 
3056.000000	95.613418 
3055.000000	95.616933 
3054.000000	95.618766 
3053.000000	95.615490 
3052.000000	95.606461 
3051.000000	95.595901 
3050.000000	95.590326 
3049.000000	95.593164 
3048.000000	95.601696 
3047.000000	95.609639 
3046.000000	95.612969 
3045.000000	95.612826 
3044.000000	95.612866 
3043.000000	95.614830 
3042.000000	95.617522 
3041.000000	95.619115 
3040.000000	95.618803 
3039.000000	95.616319 
3038.000000	95.611654 
3037.000000	95.606027 
3036.000000	95.601770 
3035.000000	95.600056 
3034.000000	95.599288 
3033.000000	95.596687 
3032.000000	95.591122 
3031.000000	95.583473 
3030.000000	95.574406 
3029.000000	95.563181 
3028.000000	95.549296 
3027.000000	95.534338 
3026.000000	95.521176 
3025.000000	95.511383 
3024.000000	95.504056 
3023.000000	95.497214 
3022.000000	95.489759 
3021.000000	95.481835 
3020.000000	95.473843 
3019.000000	95.465690 
3018.000000	95.456914 
3017.000000	95.447073 
3016.000000	95.435957 
3015.000000	95.423670 
3014.000000	95.410422 
3013.000000	95.395897 
3012.000000	95.379175 
3011.000000	95.360125 
3010.000000	95.340762 
3009.000000	95.323890 
3008.000000	95.309682 
3007.000000	95.294610 
3006.000000	95.274986 
3005.000000	95.251260 
3004.000000	95.227773 
3003.000000	95.208449 
3002.000000	95.193771 
3001.000000	95.181714 
3000.000000	95.170003 
2999.000000	95.156991 
2998.000000	95.142030 
2997.000000	95.126334 
2996.000000	95.112247 
2995.000000	95.099649 
2994.000000	95.083207 
2993.000000	95.055452 
2992.000000	95.014233 
2991.000000	94.966722 
2990.000000	94.925015 
2989.000000	94.897612 
2988.000000	94.885361 
2987.000000	94.884168 
2986.000000	94.889247 
2985.000000	94.896045 
2984.000000	94.899144 
2983.000000	94.893727 
2982.000000	94.879483 
2981.000000	94.861779 
2980.000000	94.847499 
2979.000000	94.839736 
2978.000000	94.836753 
2977.000000	94.835009 
2976.000000	94.832263 
2975.000000	94.828834 
2974.000000	94.827887 
2973.000000	94.834569 
2972.000000	94.852738 
2971.000000	94.881187 
2970.000000	94.913993 
2969.000000	94.945931 
2968.000000	94.977048 
2967.000000	95.010777 
2966.000000	95.048051 
2965.000000	95.084990 
2964.000000	95.116624 
2963.000000	95.141386 
2962.000000	95.161022 
2961.000000	95.177300 
2960.000000	95.190633 
2959.000000	95.201828 
2958.000000	95.213324 
2957.000000	95.227260 
2956.000000	95.242926 
2955.000000	95.257651 
2954.000000	95.270428 
2953.000000	95.283202 
2952.000000	95.297594 
2951.000000	95.311333 
2950.000000	95.319664 
2949.000000	95.320521 
2948.000000	95.317008 
2947.000000	95.314460 
2946.000000	95.315941 
2945.000000	95.321028 
2944.000000	95.327653 
2943.000000	95.333778 
2942.000000	95.337769 
2941.000000	95.338712 
2940.000000	95.337053 
2939.000000	95.334432 
2938.000000	95.332434 
2937.000000	95.331783 
2936.000000	95.332921 
2935.000000	95.336778 
2934.000000	95.344098 
2933.000000	95.353887 
2932.000000	95.363196 
2931.000000	95.369417 
2930.000000	95.373089 
2929.000000	95.377719 
2928.000000	95.385779 
2927.000000	95.395037 
2926.000000	95.400250 
2925.000000	95.399161 
2924.000000	95.395678 
2923.000000	95.395970 
2922.000000	95.401879 
2921.000000	95.409570 
2920.000000	95.414657 
2919.000000	95.416859 
2918.000000	95.418745 
2917.000000	95.421122 
2916.000000	95.421266 
2915.000000	95.415755 
2914.000000	95.403963 
2913.000000	95.388511 
2912.000000	95.373061 
2911.000000	95.360046 
2910.000000	95.349805 
2909.000000	95.340950 
2908.000000	95.331564 
2907.000000	95.320791 
2906.000000	95.309588 
2905.000000	95.299544 
2904.000000	95.290890 
2903.000000	95.282472 
2902.000000	95.274414 
2901.000000	95.270248 
2900.000000	95.274859 
2899.000000	95.289505 
2898.000000	95.309338 
2897.000000	95.326708 
2896.000000	95.337339 
2895.000000	95.342842 
2894.000000	95.347442 
2893.000000	95.353437 
2892.000000	95.360364 
2891.000000	95.367273 
2890.000000	95.374014 
2889.000000	95.379998 
2888.000000	95.383222 
2887.000000	95.382117 
2886.000000	95.378438 
2885.000000	95.377413 
2884.000000	95.384312 
2883.000000	95.400568 
2882.000000	95.422637 
2881.000000	95.444344 
2880.000000	95.461031 
2879.000000	95.472444 
2878.000000	95.482025 
2877.000000	95.493360 
2876.000000	95.507202 
2875.000000	95.521791 
2874.000000	95.535454 
2873.000000	95.548266 
2872.000000	95.561437 
2871.000000	95.575922 
2870.000000	95.591757 
2869.000000	95.607978 
2868.000000	95.623047 
2867.000000	95.636192 
2866.000000	95.648743 
2865.000000	95.663321 
2864.000000	95.681211 
2863.000000	95.701205 
2862.000000	95.721532 
2861.000000	95.741881 
2860.000000	95.762466 
2859.000000	95.782018 
2858.000000	95.798467 
2857.000000	95.811670 
2856.000000	95.824100 
2855.000000	95.838212 
2854.000000	95.853932 
2853.000000	95.869315 
2852.000000	95.883090 
2851.000000	95.895933 
2850.000000	95.909225 
2849.000000	95.922694 
2848.000000	95.933485 
2847.000000	95.938254 
2846.000000	95.936753 
2845.000000	95.933114 
2844.000000	95.932883 
2843.000000	95.938577 
2842.000000	95.948487 
2841.000000	95.959196 
2840.000000	95.968261 
2839.000000	95.974828 
2838.000000	95.979141 
2837.000000	95.982199 
2836.000000	95.985111 
2835.000000	95.988173 
2834.000000	95.991054 
2833.000000	95.994023 
2832.000000	95.998181 
2831.000000	96.004014 
2830.000000	96.010392 
2829.000000	96.015581 
2828.000000	96.018878 
2827.000000	96.021039 
2826.000000	96.023760 
2825.000000	96.029053 
2824.000000	96.038175 
2823.000000	96.050095 
2822.000000	96.061337 
2821.000000	96.068358 
2820.000000	96.070203 
2819.000000	96.068540 
2818.000000	96.065654 
2817.000000	96.063192 
2816.000000	96.062523 
2815.000000	96.064871 
2814.000000	96.070247 
2813.000000	96.076842 
2812.000000	96.082374 
2811.000000	96.086047 
2810.000000	96.088790 
2809.000000	96.091723 
2808.000000	96.095007 
2807.000000	96.098208 
2806.000000	96.101088 
2805.000000	96.103638 
2804.000000	96.105786 
2803.000000	96.107634 
2802.000000	96.109864 
2801.000000	96.113371 
2800.000000	96.118266 
2799.000000	96.123493 
2798.000000	96.127701 
2797.000000	96.130377 
2796.000000	96.131928 
2795.000000	96.133003 
2794.000000	96.134010 
2793.000000	96.135212 
2792.000000	96.136929 
2791.000000	96.139406 
2790.000000	96.142584 
2789.000000	96.146094 
2788.000000	96.149459 
2787.000000	96.152306 
2786.000000	96.154530 
2785.000000	96.156391 
2784.000000	96.158380 
2783.000000	96.160778 
2782.000000	96.163345 
2781.000000	96.165566 
2780.000000	96.167206 
2779.000000	96.168489 
2778.000000	96.169804 
2777.000000	96.171344 
2776.000000	96.173072 
2775.000000	96.174933 
2774.000000	96.176988 
2773.000000	96.179313 
2772.000000	96.181858 
2771.000000	96.184436 
2770.000000	96.186836 
2769.000000	96.188920 
2768.000000	96.190670 
2767.000000	96.192233 
2766.000000	96.193878 
2765.000000	96.195789 
2764.000000	96.197917 
2763.000000	96.200019 
2762.000000	96.201901 
2761.000000	96.203604 
2760.000000	96.205311 
2759.000000	96.207115 
2758.000000	96.208930 
2757.000000	96.210652 
2756.000000	96.212308 
2755.000000	96.213982 
2754.000000	96.215705 
2753.000000	96.217449 
2752.000000	96.219185 
2751.000000	96.220920 
2750.000000	96.222674 
2749.000000	96.224440 
2748.000000	96.226200 
2747.000000	96.227943 
2746.000000	96.229675 
2745.000000	96.231401 
2744.000000	96.233118 
2743.000000	96.234831 
2742.000000	96.236543 
2741.000000	96.238263 
2740.000000	96.240000 
2739.000000	96.241758 
2738.000000	96.243532 
2737.000000	96.245315 
2736.000000	96.247098 
2735.000000	96.248867 
2734.000000	96.250607 
2733.000000	96.252312 
2732.000000	96.253982 
2731.000000	96.255624 
2730.000000	96.257243 
2729.000000	96.258866 
2728.000000	96.260540 
2727.000000	96.262302 
2726.000000	96.264118 
2725.000000	96.265897 
2724.000000	96.267587 
2723.000000	96.269216 
2722.000000	96.270846 
2721.000000	96.272506 
2720.000000	96.274210 
2719.000000	96.275930 
2718.000000	96.277586 
2717.000000	96.279157 
2716.000000	96.280801 
2715.000000	96.282705 
2714.000000	96.284712 
2713.000000	96.286331 
2712.000000	96.287297 
2711.000000	96.287982 
2710.000000	96.289038 
2709.000000	96.290686 
2708.000000	96.292605 
2707.000000	96.294396 
2706.000000	96.296022 
2705.000000	96.297798 
2704.000000	96.300047 
2703.000000	96.302699 
2702.000000	96.305154 
2701.000000	96.306679 
2700.000000	96.307051 
2699.000000	96.306807 
2698.000000	96.306770 
2697.000000	96.307366 
2696.000000	96.308358 
2695.000000	96.309101 
2694.000000	96.309103 
2693.000000	96.308584 
2692.000000	96.308590 
2691.000000	96.310267 
2690.000000	96.313836 
2689.000000	96.318236 
2688.000000	96.321969 
2687.000000	96.324463 
2686.000000	96.326427 
2685.000000	96.328768 
2684.000000	96.331276 
2683.000000	96.332699 
2682.000000	96.332294 
2681.000000	96.330952 
2680.000000	96.330252 
2679.000000	96.330525 
2678.000000	96.330492 
2677.000000	96.328951 
2676.000000	96.326443 
2675.000000	96.324871 
2674.000000	96.325608 
2673.000000	96.328453 
2672.000000	96.332211 
2671.000000	96.335857 
2670.000000	96.339099 
2669.000000	96.342054 
2668.000000	96.344760 
2667.000000	96.347088 
2666.000000	96.348968 
2665.000000	96.350475 
2664.000000	96.351658 
2663.000000	96.352507 
2662.000000	96.353216 
2661.000000	96.354261 
2660.000000	96.355925 
2659.000000	96.357858 
2658.000000	96.359400 
2657.000000	96.360356 
2656.000000	96.361083 
2655.000000	96.361815 
2654.000000	96.362340 
2653.000000	96.362433 
2652.000000	96.362289 
2651.000000	96.362356 
2650.000000	96.362931 
2649.000000	96.364041 
2648.000000	96.365534 
2647.000000	96.367093 
2646.000000	96.368332 
2645.000000	96.369101 
2644.000000	96.369651 
2643.000000	96.370376 
2642.000000	96.371392 
2641.000000	96.372424 
2640.000000	96.373129 
2639.000000	96.373437 
2638.000000	96.373584 
2637.000000	96.373949 
2636.000000	96.374732 
2635.000000	96.375867 
2634.000000	96.377104 
2633.000000	96.378204 
2632.000000	96.379106 
2631.000000	96.379871 
2630.000000	96.380556 
2629.000000	96.381174 
2628.000000	96.381749 
2627.000000	96.382358 
2626.000000	96.383044 
2625.000000	96.383729 
2624.000000	96.384290 
2623.000000	96.384703 
2622.000000	96.385073 
2621.000000	96.385519 
2620.000000	96.386070 
2619.000000	96.386693 
2618.000000	96.387362 
2617.000000	96.388040 
2616.000000	96.388625 
2615.000000	96.389001 
2614.000000	96.389183 
2613.000000	96.389400 
2612.000000	96.389913 
2611.000000	96.390758 
2610.000000	96.391705 
2609.000000	96.392518 
2608.000000	96.393230 
2607.000000	96.394073 
2606.000000	96.395193 
2605.000000	96.396457 
2604.000000	96.397547 
2603.000000	96.398269 
2602.000000	96.398733 
2601.000000	96.399189 
2600.000000	96.399692 
2599.000000	96.400067 
2598.000000	96.400256 
2597.000000	96.400524 
2596.000000	96.401220 
2595.000000	96.402395 
2594.000000	96.403714 
2593.000000	96.404713 
2592.000000	96.405220 
2591.000000	96.405413 
2590.000000	96.405599 
2589.000000	96.405959 
2588.000000	96.406465 
2587.000000	96.407003 
2586.000000	96.407503 
2585.000000	96.407971 
2584.000000	96.408394 
2583.000000	96.408679 
2582.000000	96.408758 
2581.000000	96.408741 
2580.000000	96.408888 
2579.000000	96.409359 
2578.000000	96.410078 
2577.000000	96.410835 
2576.000000	96.411506 
2575.000000	96.412121 
2574.000000	96.412787 
2573.000000	96.413579 
2572.000000	96.414422 
2571.000000	96.415124 
2570.000000	96.415563 
2569.000000	96.415826 
2568.000000	96.416118 
2567.000000	96.416532 
2566.000000	96.416985 
2565.000000	96.417374 
2564.000000	96.417711 
2563.000000	96.418069 
2562.000000	96.418465 
2561.000000	96.418873 
2560.000000	96.419312 
2559.000000	96.419822 
2558.000000	96.420384 
2557.000000	96.420916 
2556.000000	96.421359 
2555.000000	96.421746 
2554.000000	96.422152 
2553.000000	96.422585 
2552.000000	96.422977 
2551.000000	96.423306 
2550.000000	96.423626 
2549.000000	96.424009 
2548.000000	96.424470 
2547.000000	96.424986 
2546.000000	96.425509 
2545.000000	96.426020 
2544.000000	96.426536 
2543.000000	96.427068 
2542.000000	96.427615 
2541.000000	96.428174 
2540.000000	96.428737 
2539.000000	96.429299 
2538.000000	96.429850 
2537.000000	96.430383 
2536.000000	96.430893 
2535.000000	96.431382 
2534.000000	96.431854 
2533.000000	96.432315 
2532.000000	96.432771 
2531.000000	96.433224 
2530.000000	96.433677 
2529.000000	96.434134 
2528.000000	96.434598 
2527.000000	96.435066 
2526.000000	96.435529 
2525.000000	96.435979 
2524.000000	96.436414 
2523.000000	96.436841 
2522.000000	96.437261 
2521.000000	96.437672 
2520.000000	96.438072 
2519.000000	96.438459 
2518.000000	96.438837 
2517.000000	96.439213 
2516.000000	96.439594 
2515.000000	96.439982 
2514.000000	96.440381 
2513.000000	96.440790 
2512.000000	96.441210 
2511.000000	96.441640 
2510.000000	96.442077 
2509.000000	96.442511 
2508.000000	96.442936 
2507.000000	96.443347 
2506.000000	96.443747 
2505.000000	96.444146 
2504.000000	96.444545 
2503.000000	96.444940 
2502.000000	96.445315 
2501.000000	96.445656 
2500.000000	96.445959 
2499.000000	96.446234 
2498.000000	96.446495 
2497.000000	96.446756 
2496.000000	96.447024 
2495.000000	96.447304 
2494.000000	96.447592 
2493.000000	96.447889 
2492.000000	96.448198 
2491.000000	96.448522 
2490.000000	96.448863 
2489.000000	96.449217 
2488.000000	96.449576 
2487.000000	96.449936 
2486.000000	96.450295 
2485.000000	96.450656 
2484.000000	96.451022 
2483.000000	96.451402 
2482.000000	96.451796 
2481.000000	96.452199 
2480.000000	96.452598 
2479.000000	96.452991 
2478.000000	96.453397 
2477.000000	96.453841 
2476.000000	96.454339 
2475.000000	96.454877 
2474.000000	96.455422 
2473.000000	96.455937 
2472.000000	96.456409 
2471.000000	96.456853 
2470.000000	96.457294 
2469.000000	96.457737 
2468.000000	96.458168 
2467.000000	96.458579 
2466.000000	96.458981 
2465.000000	96.459388 
2464.000000	96.459798 
2463.000000	96.460188 
2462.000000	96.460533 
2461.000000	96.460845 
2460.000000	96.461181 
2459.000000	96.461593 
2458.000000	96.462081 
2457.000000	96.462607 
2456.000000	96.463125 
2455.000000	96.463615 
2454.000000	96.464078 
2453.000000	96.464516 
2452.000000	96.464938 
2451.000000	96.465357 
2450.000000	96.465787 
2449.000000	96.466227 
2448.000000	96.466654 
2447.000000	96.467046 
2446.000000	96.467401 
2445.000000	96.467736 
2444.000000	96.468060 
2443.000000	96.468367 
2442.000000	96.468657 
2441.000000	96.468937 
2440.000000	96.469212 
2439.000000	96.469486 
2438.000000	96.469755 
2437.000000	96.470019 
2436.000000	96.470272 
2435.000000	96.470511 
2434.000000	96.470728 
2433.000000	96.470917 
2432.000000	96.471081 
2431.000000	96.471229 
2430.000000	96.471374 
2429.000000	96.471526 
2428.000000	96.471694 
2427.000000	96.471880 
2426.000000	96.472079 
2425.000000	96.472286 
2424.000000	96.472501 
2423.000000	96.472724 
2422.000000	96.472958 
2421.000000	96.473201 
2420.000000	96.473450 
2419.000000	96.473698 
2418.000000	96.473940 
2417.000000	96.474173 
2416.000000	96.474398 
2415.000000	96.474623 
2414.000000	96.474857 
2413.000000	96.475110 
2412.000000	96.475383 
2411.000000	96.475672 
2410.000000	96.475972 
2409.000000	96.476279 
2408.000000	96.476595 
2407.000000	96.476920 
2406.000000	96.477254 
2405.000000	96.477593 
2404.000000	96.477934 
2403.000000	96.478275 
2402.000000	96.478616 
2401.000000	96.478960 
2400.000000	96.479307 
2399.000000	96.479659 
2398.000000	96.480011 
2397.000000	96.480366 
2396.000000	96.480731 
2395.000000	96.481117 
2394.000000	96.481529 
2393.000000	96.481965 
2392.000000	96.482417 
2391.000000	96.482871 
2390.000000	96.483316 
2389.000000	96.483748 
2388.000000	96.484171 
2387.000000	96.484591 
2386.000000	96.485008 
2385.000000	96.485418 
2384.000000	96.485814 
2383.000000	96.486191 
2382.000000	96.486547 
2381.000000	96.486884 
2380.000000	96.487204 
2379.000000	96.487504 
2378.000000	96.487778 
2377.000000	96.488029 
2376.000000	96.488267 
2375.000000	96.488506 
2374.000000	96.488747 
2373.000000	96.488980 
2372.000000	96.489189 
2371.000000	96.489353 
2370.000000	96.489463 
2369.000000	96.489521 
2368.000000	96.489542 
2367.000000	96.489535 
2366.000000	96.489498 
2365.000000	96.489424 
2364.000000	96.489307 
2363.000000	96.489149 
2362.000000	96.488960 
2361.000000	96.488756 
2360.000000	96.488559 
2359.000000	96.488378 
2358.000000	96.488201 
2357.000000	96.488014 
2356.000000	96.487814 
2355.000000	96.487596 
2354.000000	96.487354 
2353.000000	96.487075 
2352.000000	96.486745 
2351.000000	96.486336 
2350.000000	96.485817 
2349.000000	96.485214 
2348.000000	96.484605 
2347.000000	96.484094 
2346.000000	96.483724 
2345.000000	96.483457 
2344.000000	96.483202 
2343.000000	96.482864 
2342.000000	96.482435 
2341.000000	96.481940 
2340.000000	96.481469 
2339.000000	96.481086 
2338.000000	96.480752 
2337.000000	96.480396 
2336.000000	96.480076 
2335.000000	96.479932 
2334.000000	96.480003 
2333.000000	96.480072 
2332.000000	96.479907 
2331.000000	96.479487 
2330.000000	96.478756 
2329.000000	96.477823 
2328.000000	96.476811 
2327.000000	96.476244 
2326.000000	96.476322 
2325.000000	96.476613 
2324.000000	96.476558 
2323.000000	96.476023 
2322.000000	96.475679 
2321.000000	96.475855 
2320.000000	96.476507 
2319.000000	96.477292 
2318.000000	96.477872 
2317.000000	96.477927 
2316.000000	96.477314 
2315.000000	96.476574 
2314.000000	96.476403 
2313.000000	96.477145 
2312.000000	96.478332 
2311.000000	96.479457 
2310.000000	96.480230 
2309.000000	96.480809 
2308.000000	96.481539 
2307.000000	96.482886 
2306.000000	96.484934 
2305.000000	96.487078 
2304.000000	96.488428 
2303.000000	96.488665 
2302.000000	96.488212 
2301.000000	96.487663 
2300.000000	96.487331 
2299.000000	96.487394 
2298.000000	96.487798 
2297.000000	96.488365 
2296.000000	96.488827 
2295.000000	96.489276 
2294.000000	96.490009 
2293.000000	96.491143 
2292.000000	96.492304 
2291.000000	96.493023 
2290.000000	96.493283 
2289.000000	96.493546 
2288.000000	96.494249 
2287.000000	96.495339 
2286.000000	96.496417 
2285.000000	96.497155 
2284.000000	96.497549 
2283.000000	96.497717 
2282.000000	96.497684 
2281.000000	96.497454 
2280.000000	96.497230 
2279.000000	96.497261 
2278.000000	96.497591 
2277.000000	96.498045 
2276.000000	96.498395 
2275.000000	96.498547 
2274.000000	96.498558 
2273.000000	96.498551 
2272.000000	96.498607 
2271.000000	96.498721 
2270.000000	96.498841 
2269.000000	96.498908 
2268.000000	96.498906 
2267.000000	96.498869 
2266.000000	96.498865 
2265.000000	96.498927 
2264.000000	96.499028 
2263.000000	96.499106 
2262.000000	96.499133 
2261.000000	96.499138 
2260.000000	96.499184 
2259.000000	96.499317 
2258.000000	96.499530 
2257.000000	96.499757 
2256.000000	96.499920 
2255.000000	96.499985 
2254.000000	96.499969 
2253.000000	96.499927 
2252.000000	96.499923 
2251.000000	96.500009 
2250.000000	96.500174 
2249.000000	96.500309 
2248.000000	96.500274 
2247.000000	96.500032 
2246.000000	96.499752 
2245.000000	96.499695 
2244.000000	96.499963 
2243.000000	96.500420 
2242.000000	96.500837 
2241.000000	96.501131 
2240.000000	96.501414 
2239.000000	96.501849 
2238.000000	96.502479 
2237.000000	96.503155 
2236.000000	96.503654 
2235.000000	96.503858 
2234.000000	96.503876 
2233.000000	96.504026 
2232.000000	96.504631 
2231.000000	96.505750 
2230.000000	96.507095 
2229.000000	96.508251 
2228.000000	96.509039 
2227.000000	96.509580 
2226.000000	96.509982 
2225.000000	96.510139 
2224.000000	96.509919 
2223.000000	96.509513 
2222.000000	96.509404 
2221.000000	96.509867 
2220.000000	96.510653 
2219.000000	96.511283 
2218.000000	96.511682 
2217.000000	96.512309 
2216.000000	96.513534 
2215.000000	96.515079 
2214.000000	96.516273 
2213.000000	96.516793 
2212.000000	96.516894 
2211.000000	96.516971 
2210.000000	96.517101 
2209.000000	96.517117 
2208.000000	96.516919 
2207.000000	96.516560 
2206.000000	96.516259 
2205.000000	96.516411 
2204.000000	96.517347 
2203.000000	96.518980 
2202.000000	96.520716 
2201.000000	96.521879 
2200.000000	96.522230 
2199.000000	96.521939 
2198.000000	96.521339 
2197.000000	96.520729 
2196.000000	96.520302 
2195.000000	96.520105 
2194.000000	96.520056 
2193.000000	96.520042 
2192.000000	96.519995 
2191.000000	96.519902 
2190.000000	96.519813 
2189.000000	96.519826 
2188.000000	96.519952 
2187.000000	96.520041 
2186.000000	96.519977 
2185.000000	96.519876 
2184.000000	96.519943 
2183.000000	96.520178 
2182.000000	96.520419 
2181.000000	96.520548 
2180.000000	96.520600 
2179.000000	96.520642 
2178.000000	96.520686 
2177.000000	96.520719 
2176.000000	96.520740 
2175.000000	96.520757 
2174.000000	96.520771 
2173.000000	96.520783 
2172.000000	96.520797 
2171.000000	96.520819 
2170.000000	96.520857 
2169.000000	96.520916 
2168.000000	96.520993 
2167.000000	96.521078 
2166.000000	96.521159 
2165.000000	96.521229 
2164.000000	96.521287 
2163.000000	96.521340 
2162.000000	96.521390 
2161.000000	96.521439 
2160.000000	96.521484 
2159.000000	96.521528 
2158.000000	96.521575 
2157.000000	96.521633 
2156.000000	96.521706 
2155.000000	96.521793 
2154.000000	96.521889 
2153.000000	96.521984 
2152.000000	96.522069 
2151.000000	96.522143 
2150.000000	96.522213 
2149.000000	96.522288 
2148.000000	96.522372 
2147.000000	96.522464 
2146.000000	96.522554 
2145.000000	96.522637 
2144.000000	96.522713 
2143.000000	96.522792 
2142.000000	96.522878 
2141.000000	96.522970 
2140.000000	96.523061 
2139.000000	96.523148 
2138.000000	96.523233 
2137.000000	96.523322 
2136.000000	96.523421 
2135.000000	96.523531 
2134.000000	96.523651 
2133.000000	96.523773 
2132.000000	96.523889 
2131.000000	96.523994 
2130.000000	96.524091 
2129.000000	96.524187 
2128.000000	96.524285 
2127.000000	96.524384 
2126.000000	96.524480 
2125.000000	96.524573 
2124.000000	96.524670 
2123.000000	96.524781 
2122.000000	96.524913 
2121.000000	96.525069 
2120.000000	96.525240 
2119.000000	96.525414 
2118.000000	96.525581 
2117.000000	96.525740 
2116.000000	96.525902 
2115.000000	96.526074 
2114.000000	96.526259 
2113.000000	96.526455 
2112.000000	96.526659 
2111.000000	96.526869 
2110.000000	96.527087 
2109.000000	96.527313 
2108.000000	96.527549 
2107.000000	96.527795 
2106.000000	96.528044 
2105.000000	96.528289 
2104.000000	96.528526 
2103.000000	96.528759 
2102.000000	96.528999 
2101.000000	96.529244 
2100.000000	96.529494 
2099.000000	96.529755 
2098.000000	96.530017 
2097.000000	96.530258 
2096.000000	96.530491 
2095.000000	96.530761 
2094.000000	96.531104 
2093.000000	96.531508 
2092.000000	96.531902 
2091.000000	96.532167 
2090.000000	96.532198 
2089.000000	96.532024 
2088.000000	96.531867 
2087.000000	96.531933 
2086.000000	96.532210 
2085.000000	96.532553 
2084.000000	96.532989 
2083.000000	96.533724 
2082.000000	96.534825 
2081.000000	96.536069 
2080.000000	96.537145 
2079.000000	96.537847 
2078.000000	96.538023 
2077.000000	96.537656 
2076.000000	96.537039 
2075.000000	96.536698 
2074.000000	96.536928 
2073.000000	96.537518 
2072.000000	96.538014 
2071.000000	96.538139 
2070.000000	96.537957 
2069.000000	96.537746 
2068.000000	96.537787 
2067.000000	96.538096 
2066.000000	96.538358 
2065.000000	96.538255 
2064.000000	96.537880 
2063.000000	96.537662 
2062.000000	96.537861 
2061.000000	96.538327 
2060.000000	96.538765 
2059.000000	96.539010 
2058.000000	96.538971 
2057.000000	96.538591 
2056.000000	96.537973 
2055.000000	96.537411 
2054.000000	96.537170 
2053.000000	96.537288 
2052.000000	96.537605 
2051.000000	96.537861 
2050.000000	96.537842 
2049.000000	96.537535 
2048.000000	96.537134 
2047.000000	96.536857 
2046.000000	96.536747 
2045.000000	96.536698 
2044.000000	96.536611 
2043.000000	96.536448 
2042.000000	96.536168 
2041.000000	96.535738 
2040.000000	96.535225 
2039.000000	96.534797 
2038.000000	96.534541 
2037.000000	96.534365 
2036.000000	96.534095 
2035.000000	96.533658 
2034.000000	96.533120 
2033.000000	96.532606 
2032.000000	96.532206 
2031.000000	96.531925 
2030.000000	96.531624 
2029.000000	96.531091 
2028.000000	96.530240 
2027.000000	96.529231 
2026.000000	96.528300 
2025.000000	96.527529 
2024.000000	96.526895 
2023.000000	96.526416 
2022.000000	96.526106 
2021.000000	96.525864 
2020.000000	96.525584 
2019.000000	96.525333 
2018.000000	96.525201 
2017.000000	96.525043 
2016.000000	96.524614 
2015.000000	96.523904 
2014.000000	96.523178 
2013.000000	96.522694 
2012.000000	96.522463 
2011.000000	96.522351 
2010.000000	96.522222 
2009.000000	96.521973 
2008.000000	96.521568 
2007.000000	96.521097 
2006.000000	96.520744 
2005.000000	96.520590 
2004.000000	96.520547 
2003.000000	96.520499 
2002.000000	96.520473 
2001.000000	96.520553 
2000.000000	96.520714 
1999.000000	96.520842 
1998.000000	96.520886 
1997.000000	96.520906 
1996.000000	96.520983 
1995.000000	96.521135 
1994.000000	96.521328 
1993.000000	96.521542 
1992.000000	96.521778 
1991.000000	96.522031 
1990.000000	96.522297 
1989.000000	96.522582 
1988.000000	96.522880 
1987.000000	96.523188 
1986.000000	96.523506 
1985.000000	96.523838 
1984.000000	96.524187 
1983.000000	96.524550 
1982.000000	96.524925 
1981.000000	96.525312 
1980.000000	96.525715 
1979.000000	96.526136 
1978.000000	96.526572 
1977.000000	96.527014 
1976.000000	96.527450 
1975.000000	96.527872 
1974.000000	96.528281 
1973.000000	96.528684 
1972.000000	96.529093 
1971.000000	96.529508 
1970.000000	96.529924 
1969.000000	96.530332 
1968.000000	96.530727 
1967.000000	96.531107 
1966.000000	96.531475 
1965.000000	96.531829 
1964.000000	96.532167 
1963.000000	96.532481 
1962.000000	96.532763 
1961.000000	96.533008 
1960.000000	96.533215 
1959.000000	96.533391 
1958.000000	96.533541 
1957.000000	96.533668 
1956.000000	96.533768 
1955.000000	96.533837 
1954.000000	96.533876 
1953.000000	96.533893 
1952.000000	96.533898 
1951.000000	96.533892 
1950.000000	96.533869 
1949.000000	96.533821 
1948.000000	96.533747 
1947.000000	96.533644 
1946.000000	96.533487 
1945.000000	96.533244 
1944.000000	96.532924 
1943.000000	96.532604 
1942.000000	96.532372 
1941.000000	96.532250 
1940.000000	96.532195 
1939.000000	96.532087 
1938.000000	96.531698 
1937.000000	96.530842 
1936.000000	96.529652 
1935.000000	96.528573 
1934.000000	96.527920 
1933.000000	96.527594 
1932.000000	96.527230 
1931.000000	96.526596 
1930.000000	96.525747 
1929.000000	96.524805 
1928.000000	96.523909 
1927.000000	96.523056 
1926.000000	96.522034 
1925.000000	96.520619 
1924.000000	96.518950 
1923.000000	96.517637 
1922.000000	96.516923 
1921.000000	96.516119 
1920.000000	96.514359 
1919.000000	96.511725 
1918.000000	96.509296 
1917.000000	96.507966 
1916.000000	96.507785 
1915.000000	96.508312 
1914.000000	96.508851 
1913.000000	96.508611 
1912.000000	96.507089 
1911.000000	96.504570 
1910.000000	96.501770 
1909.000000	96.498976 
1908.000000	96.496202 
1907.000000	96.493125 
1906.000000	96.489244 
1905.000000	96.484425 
1904.000000	96.479628 
1903.000000	96.476828 
1902.000000	96.476547 
1901.000000	96.476578 
1900.000000	96.474791 
1899.000000	96.471974 
1898.000000	96.470666 
1897.000000	96.471578 
1896.000000	96.472639 
1895.000000	96.472067 
1894.000000	96.470425 
1893.000000	96.469021 
1892.000000	96.467768 
1891.000000	96.465640 
1890.000000	96.462361 
1889.000000	96.458730 
1888.000000	96.455554 
1887.000000	96.452797 
1886.000000	96.449898 
1885.000000	96.446796 
1884.000000	96.444100 
1883.000000	96.442350 
1882.000000	96.441546 
1881.000000	96.441897 
1880.000000	96.444636 
1879.000000	96.450194 
1878.000000	96.456050 
1877.000000	96.458330 
1876.000000	96.455691 
1875.000000	96.450866 
1874.000000	96.447832 
1873.000000	96.447925 
1872.000000	96.449659 
1871.000000	96.451325 
1870.000000	96.452382 
1869.000000	96.452722 
1868.000000	96.452562 
1867.000000	96.453209 
1866.000000	96.455785 
1865.000000	96.459617 
1864.000000	96.463209 
1863.000000	96.466170 
1862.000000	96.469493 
1861.000000	96.474286 
1860.000000	96.480830 
1859.000000	96.488280 
1858.000000	96.494575 
1857.000000	96.497404 
1856.000000	96.496484 
1855.000000	96.494462 
1854.000000	96.494722 
1853.000000	96.498026 
1852.000000	96.502902 
1851.000000	96.507518 
1850.000000	96.510821 
1849.000000	96.513189 
1848.000000	96.515881 
1847.000000	96.519770 
1846.000000	96.524037 
1845.000000	96.526672 
1844.000000	96.526873 
1843.000000	96.527011 
1842.000000	96.529699 
1841.000000	96.533999 
1840.000000	96.537281 
1839.000000	96.538132 
1838.000000	96.537156 
1837.000000	96.535694 
1836.000000	96.534492 
1835.000000	96.534137 
1834.000000	96.535296 
1833.000000	96.537979 
1832.000000	96.541040 
1831.000000	96.542286 
1830.000000	96.540262 
1829.000000	96.536540 
1828.000000	96.534359 
1827.000000	96.534782 
1826.000000	96.536208 
1825.000000	96.536756 
1824.000000	96.536145 
1823.000000	96.535605 
1822.000000	96.536066 
1821.000000	96.537229 
1820.000000	96.538300 
1819.000000	96.538777 
1818.000000	96.538731 
1817.000000	96.538215 
1816.000000	96.537020 
1815.000000	96.535428 
1814.000000	96.534261 
1813.000000	96.534337 
1812.000000	96.535562 
1811.000000	96.536666 
1810.000000	96.536339 
1809.000000	96.534352 
1808.000000	96.531844 
1807.000000	96.530379 
1806.000000	96.530453 
1805.000000	96.531255 
1804.000000	96.531727 
1803.000000	96.531752 
1802.000000	96.531647 
1801.000000	96.531289 
1800.000000	96.530152 
1799.000000	96.528198 
1798.000000	96.526164 
1797.000000	96.524516 
1796.000000	96.523103 
1795.000000	96.521746 
1794.000000	96.520626 
1793.000000	96.520301 
1792.000000	96.521161 
1791.000000	96.523135 
1790.000000	96.525746 
1789.000000	96.528086 
1788.000000	96.529385 
1787.000000	96.529476 
1786.000000	96.528662 
1785.000000	96.527372 
1784.000000	96.526127 
1783.000000	96.525820 
1782.000000	96.526731 
1781.000000	96.528601 
1780.000000	96.530803 
1779.000000	96.532271 
1778.000000	96.532371 
1777.000000	96.531159 
1776.000000	96.529682 
1775.000000	96.528609 
1774.000000	96.526964 
1773.000000	96.523463 
1772.000000	96.519119 
1771.000000	96.517294 
1770.000000	96.520044 
1769.000000	96.526261 
1768.000000	96.533307 
1767.000000	96.538947 
1766.000000	96.542000 
1765.000000	96.542451 
1764.000000	96.540734 
1763.000000	96.538087 
1762.000000	96.536090 
1761.000000	96.535693 
1760.000000	96.536421 
1759.000000	96.537237 
1758.000000	96.537744 
1757.000000	96.538153 
1756.000000	96.539120 
1755.000000	96.540392 
1754.000000	96.540931 
1753.000000	96.540080 
1752.000000	96.538554 
1751.000000	96.537231 
1750.000000	96.536334 
1749.000000	96.535348 
1748.000000	96.533802 
1747.000000	96.531861 
1746.000000	96.529310 
1745.000000	96.526983 
1744.000000	96.526465 
1743.000000	96.528112 
1742.000000	96.530104 
1741.000000	96.529356 
1740.000000	96.523958 
1739.000000	96.516174 
1738.000000	96.510697 
1737.000000	96.508688 
1736.000000	96.507590 
1735.000000	96.504507 
1734.000000	96.496741 
1733.000000	96.487099 
1732.000000	96.482544 
1731.000000	96.483948 
1730.000000	96.487422 
1729.000000	96.488977 
1728.000000	96.486978 
1727.000000	96.482376 
1726.000000	96.475555 
1725.000000	96.466796 
1724.000000	96.457433 
1723.000000	96.450200 
1722.000000	96.446742 
1721.000000	96.444410 
1720.000000	96.438700 
1719.000000	96.427696 
1718.000000	96.414298 
1717.000000	96.403048 
1716.000000	96.395275 
1715.000000	96.389598 
1714.000000	96.384416 
1713.000000	96.378337 
1712.000000	96.370686 
1711.000000	96.362292 
1710.000000	96.354216 
1709.000000	96.346383 
1708.000000	96.338347 
1707.000000	96.329531 
1706.000000	96.319558 
1705.000000	96.308471 
1704.000000	96.297997 
1703.000000	96.289441 
1702.000000	96.281345 
1701.000000	96.270057 
1700.000000	96.253359 
1699.000000	96.238305 
1698.000000	96.230678 
1697.000000	96.225715 
1696.000000	96.216930 
1695.000000	96.203554 
1694.000000	96.190473 
1693.000000	96.179606 
1692.000000	96.168569 
1691.000000	96.157031 
1690.000000	96.146554 
1689.000000	96.137369 
1688.000000	96.128119 
1687.000000	96.116433 
1686.000000	96.101124 
1685.000000	96.083610 
1684.000000	96.066749 
1683.000000	96.054536 
1682.000000	96.047335 
1681.000000	96.040464 
1680.000000	96.031225 
1679.000000	96.019954 
1678.000000	96.006932 
1677.000000	95.992894 
1676.000000	95.979549 
1675.000000	95.968271 
1674.000000	95.958196 
1673.000000	95.948095 
1672.000000	95.936307 
1671.000000	95.922029 
1670.000000	95.906096 
1669.000000	95.890830 
1668.000000	95.880895 
1667.000000	95.877701 
1666.000000	95.877458 
1665.000000	95.876610 
1664.000000	95.874000 
1663.000000	95.869473 
1662.000000	95.861405 
1661.000000	95.850113 
1660.000000	95.839463 
1659.000000	95.830757 
1658.000000	95.821006 
1657.000000	95.805564 
1656.000000	95.784205 
1655.000000	95.760687 
1654.000000	95.748714 
1653.000000	95.751460 
1652.000000	95.755325 
1651.000000	95.758039 
1650.000000	95.757397 
1649.000000	95.751700 
1648.000000	95.747986 
1647.000000	95.749163 
1646.000000	95.751080 
1645.000000	95.751341 
1644.000000	95.751684 
1643.000000	95.752284 
1642.000000	95.750659 
1641.000000	95.744949 
1640.000000	95.737306 
1639.000000	95.731432 
1638.000000	95.729189 
1637.000000	95.730193 
1636.000000	95.733516 
1635.000000	95.736741 
1634.000000	95.740389 
1633.000000	95.745191 
1632.000000	95.749506 
1631.000000	95.755350 
1630.000000	95.764830 
1629.000000	95.776415 
1628.000000	95.787539 
1627.000000	95.798436 
1626.000000	95.810040 
1625.000000	95.821774 
1624.000000	95.832588 
1623.000000	95.841310 
1622.000000	95.846680 
1621.000000	95.849116 
1620.000000	95.851575 
1619.000000	95.858095 
1618.000000	95.872908 
1617.000000	95.894637 
1616.000000	95.915996 
1615.000000	95.933035 
1614.000000	95.945660 
1613.000000	95.953847 
1612.000000	95.959365 
1611.000000	95.965270 
1610.000000	95.972350 
1609.000000	95.980031 
1608.000000	95.989371 
1607.000000	96.002363 
1606.000000	96.017876 
1605.000000	96.033039 
1604.000000	96.046801 
1603.000000	96.058684 
1602.000000	96.067750 
1601.000000	96.074089 
1600.000000	96.080303 
1599.000000	96.089297 
1598.000000	96.100840 
1597.000000	96.112004 
1596.000000	96.120456 
1595.000000	96.126543 
1594.000000	96.132222 
1593.000000	96.139193 
1592.000000	96.148253 
1591.000000	96.159014 
1590.000000	96.169612 
1589.000000	96.178034 
1588.000000	96.184390 
1587.000000	96.190676 
1586.000000	96.198242 
1585.000000	96.205972 
1584.000000	96.212699 
1583.000000	96.218263 
1582.000000	96.223273 
1581.000000	96.229230 
1580.000000	96.237441 
1579.000000	96.246994 
1578.000000	96.254803 
1577.000000	96.257907 
1576.000000	96.255734 
1575.000000	96.252909 
1574.000000	96.253920 
1573.000000	96.257970 
1572.000000	96.263189 
1571.000000	96.269316 
1570.000000	96.275861 
1569.000000	96.281412 
1568.000000	96.286341 
1567.000000	96.291437 
1566.000000	96.296286 
1565.000000	96.300222 
1564.000000	96.303570 
1563.000000	96.306681 
1562.000000	96.309809 
1561.000000	96.312969 
1560.000000	96.317488 
1559.000000	96.321974 
1558.000000	96.323709 
1557.000000	96.325597 
1556.000000	96.329514 
1555.000000	96.334546 
1554.000000	96.339801 
1553.000000	96.344338 
1552.000000	96.347939 
1551.000000	96.350970 
1550.000000	96.354156 
1549.000000	96.357775 
1548.000000	96.361573 
1547.000000	96.365271 
1546.000000	96.368823 
1545.000000	96.372390 
1544.000000	96.376122 
1543.000000	96.380016 
1542.000000	96.384002 
1541.000000	96.387935 
1540.000000	96.391574 
1539.000000	96.394886 
1538.000000	96.398151 
1537.000000	96.401549 
1536.000000	96.404980 
1535.000000	96.408398 
1534.000000	96.411822 
1533.000000	96.415265 
1532.000000	96.418653 
1531.000000	96.421855 
1530.000000	96.424830 
1529.000000	96.427694 
1528.000000	96.430708 
1527.000000	96.434203 
1526.000000	96.438334 
1525.000000	96.442936 
1524.000000	96.447589 
1523.000000	96.451761 
1522.000000	96.455120 
1521.000000	96.457726 
1520.000000	96.460301 
1519.000000	96.463383 
1518.000000	96.466701 
1517.000000	96.470136 
1516.000000	96.473617 
1515.000000	96.477097 
1514.000000	96.480602 
1513.000000	96.484199 
1512.000000	96.487734 
1511.000000	96.490649 
1510.000000	96.492461 
1509.000000	96.493491 
1508.000000	96.496879 
1507.000000	96.505778 
1506.000000	96.514392 
1505.000000	96.517722 
1504.000000	96.518660 
1503.000000	96.518869 
1502.000000	96.520068 
1501.000000	96.523981 
1500.000000	96.529226 
1499.000000	96.531989 
1498.000000	96.529622 
1497.000000	96.524378 
1496.000000	96.521718 
1495.000000	96.525657 
1494.000000	96.534032 
1493.000000	96.540516 
1492.000000	96.540950 
1491.000000	96.537488 
1490.000000	96.536710 
1489.000000	96.540858 
1488.000000	96.544567 
1487.000000	96.543361 
1486.000000	96.538016 
1485.000000	96.530439 
1484.000000	96.523552 
1483.000000	96.520114 
1482.000000	96.521019 
1481.000000	96.524053 
1480.000000	96.525531 
1479.000000	96.524702 
1478.000000	96.523932 
1477.000000	96.525439 
1476.000000	96.528026 
1475.000000	96.529000 
1474.000000	96.526316 
1473.000000	96.520020 
1472.000000	96.511669 
1471.000000	96.503188 
1470.000000	96.495396 
1469.000000	96.487658 
1468.000000	96.480359 
1467.000000	96.475594 
1466.000000	96.473750 
1465.000000	96.470913 
1464.000000	96.462758 
1463.000000	96.448850 
1462.000000	96.431497 
1461.000000	96.412018 
1460.000000	96.392220 
1459.000000	96.375441 
1458.000000	96.365065 
1457.000000	96.358237 
1456.000000	96.348458 
1455.000000	96.337360 
1454.000000	96.329610 
1453.000000	96.327058 
1452.000000	96.328427 
1451.000000	96.329231 
1450.000000	96.326224 
1449.000000	96.320485 
1448.000000	96.315071 
1447.000000	96.311965 
1446.000000	96.309571 
1445.000000	96.305402 
1444.000000	96.298185 
1443.000000	96.287886 
1442.000000	96.277014 
1441.000000	96.268557 
1440.000000	96.263192 
1439.000000	96.258711 
1438.000000	96.253796 
1437.000000	96.248879 
1436.000000	96.243392 
1435.000000	96.236039 
1434.000000	96.227603 
1433.000000	96.220081 
1432.000000	96.214499 
1431.000000	96.209581 
1430.000000	96.203118 
1429.000000	96.195151 
1428.000000	96.187487 
1427.000000	96.181853 
1426.000000	96.178064 
1425.000000	96.175692 
1424.000000	96.174113 
1423.000000	96.170521 
1422.000000	96.162578 
1421.000000	96.151514 
1420.000000	96.142523 
1419.000000	96.139670 
1418.000000	96.139944 
1417.000000	96.137038 
1416.000000	96.128466 
1415.000000	96.115808 
1414.000000	96.102129 
1413.000000	96.090647 
1412.000000	96.083489 
1411.000000	96.080049 
1410.000000	96.077133 
1409.000000	96.071905 
1408.000000	96.064587 
1407.000000	96.059368 
1406.000000	96.061334 
1405.000000	96.072829 
1404.000000	96.091034 
1403.000000	96.108862 
1402.000000	96.121084 
1401.000000	96.128212 
1400.000000	96.134929 
1399.000000	96.144067 
1398.000000	96.151529 
1397.000000	96.149912 
1396.000000	96.137076 
1395.000000	96.121287 
1394.000000	96.116015 
1393.000000	96.127712 
1392.000000	96.151457 
1391.000000	96.177099 
1390.000000	96.196461 
1389.000000	96.206183 
1388.000000	96.207487 
1387.000000	96.205166 
1386.000000	96.204485 
1385.000000	96.207470 
1384.000000	96.212555 
1383.000000	96.216768 
1382.000000	96.218785 
1381.000000	96.220018 
1380.000000	96.223255 
1379.000000	96.230498 
1378.000000	96.241867 
1377.000000	96.256225 
1376.000000	96.272141 
1375.000000	96.288148 
1374.000000	96.302883 
1373.000000	96.316684 
1372.000000	96.331776 
1371.000000	96.350061 
1370.000000	96.370932 
1369.000000	96.391618 
1368.000000	96.408961 
1367.000000	96.421056 
1366.000000	96.428242 
1365.000000	96.432805 
1364.000000	96.437931 
1363.000000	96.446176 
1362.000000	96.457655 
1361.000000	96.469921 
1360.000000	96.480070 
1359.000000	96.486917 
1358.000000	96.492093 
1357.000000	96.499279 
1356.000000	96.510652 
1355.000000	96.523664 
1354.000000	96.532936 
1353.000000	96.536162 
1352.000000	96.535956 
1351.000000	96.536318 
1350.000000	96.538316 
1349.000000	96.540388 
1348.000000	96.541388 
1347.000000	96.541689 
1346.000000	96.541776 
1345.000000	96.541082 
1344.000000	96.539067 
1343.000000	96.536589 
1342.000000	96.535220 
1341.000000	96.535189 
1340.000000	96.534855 
1339.000000	96.533036 
1338.000000	96.531460 
1337.000000	96.533177 
1336.000000	96.538301 
1335.000000	96.542983 
1334.000000	96.543262 
1333.000000	96.539156 
1332.000000	96.534437 
1331.000000	96.532974 
1330.000000	96.535698 
1329.000000	96.540449 
1328.000000	96.543625 
1327.000000	96.542441 
1326.000000	96.537081 
1325.000000	96.531426 
1324.000000	96.530536 
1323.000000	96.536036 
1322.000000	96.543964 
1321.000000	96.547786 
1320.000000	96.544081 
1319.000000	96.535482 
1318.000000	96.528324 
1317.000000	96.527184 
1316.000000	96.531910 
1315.000000	96.539187 
1314.000000	96.545541 
1313.000000	96.548746 
1312.000000	96.547766 
1311.000000	96.543159 
1310.000000	96.537744 
1309.000000	96.535305 
1308.000000	96.537287 
1307.000000	96.541269 
1306.000000	96.543457 
1305.000000	96.542552 
1304.000000	96.540500 
1303.000000	96.539882 
1302.000000	96.541426 
1301.000000	96.543670 
1300.000000	96.544212 
1299.000000	96.541572 
1298.000000	96.536740 
1297.000000	96.532967 
1296.000000	96.533232 
1295.000000	96.537619 
1294.000000	96.543508 
1293.000000	96.547953 
1292.000000	96.549316 
1291.000000	96.547502 
1290.000000	96.543998 
1289.000000	96.541214 
1288.000000	96.540320 
1287.000000	96.539770 
1286.000000	96.537191 
1285.000000	96.532639 
1284.000000	96.528842 
1283.000000	96.528272 
1282.000000	96.531195 
1281.000000	96.536438 
1280.000000	96.542205 
1279.000000	96.545787 
1278.000000	96.544641 
1277.000000	96.539201 
1276.000000	96.533313 
1275.000000	96.530660 
1274.000000	96.531582 
1273.000000	96.534052 
1272.000000	96.536298 
1271.000000	96.537325 
1270.000000	96.536431 
1269.000000	96.534082 
1268.000000	96.532561 
1267.000000	96.534168 
1266.000000	96.538948 
1265.000000	96.544619 
1264.000000	96.547809 
1263.000000	96.545404 
1262.000000	96.537238 
1261.000000	96.528257 
1260.000000	96.524658 
1259.000000	96.525441 
1258.000000	96.521157 
1257.000000	96.504845 
1256.000000	96.481765 
1255.000000	96.464173 
1254.000000	96.457453 
1253.000000	96.455838 
1252.000000	96.451601 
1251.000000	96.443500 
1250.000000	96.435112 
1249.000000	96.429354 
1248.000000	96.427026 
1247.000000	96.427182 
1246.000000	96.425790 
1245.000000	96.416455 
1244.000000	96.396404 
1243.000000	96.371993 
1242.000000	96.355705 
1241.000000	96.355867 
1240.000000	96.369003 
1239.000000	96.382084 
1238.000000	96.382742 
1237.000000	96.368226 
1236.000000	96.345098 
1235.000000	96.321376 
1234.000000	96.300310 
1233.000000	96.281298 
1232.000000	96.263193 
1231.000000	96.243897 
1230.000000	96.219188 
1229.000000	96.186450 
1228.000000	96.149455 
1227.000000	96.115780 
1226.000000	96.088422 
1225.000000	96.062300 
1224.000000	96.029586 
1223.000000	95.986073 
1222.000000	95.932301 
1221.000000	95.871709 
1220.000000	95.808926 
1219.000000	95.747214 
1218.000000	95.685508 
1217.000000	95.619114 
1216.000000	95.544199 
1215.000000	95.460737 
1214.000000	95.371426 
1213.000000	95.279236 
1212.000000	95.185497 
1211.000000	95.088877 
1210.000000	94.987328 
1209.000000	94.883149 
1208.000000	94.783966 
1207.000000	94.694416 
1206.000000	94.608594 
1205.000000	94.516278 
1204.000000	94.415616 
1203.000000	94.313870 
1202.000000	94.216469 
1201.000000	94.121968 
1200.000000	94.028192 
1199.000000	93.936355 
1198.000000	93.847005 
1197.000000	93.757576 
1196.000000	93.666156 
1195.000000	93.573203 
1194.000000	93.478427 
1193.000000	93.380722 
1192.000000	93.281959 
1191.000000	93.185855 
1190.000000	93.092286 
1189.000000	92.997863 
1188.000000	92.902472 
1187.000000	92.809338 
1186.000000	92.718020 
1185.000000	92.623895 
1184.000000	92.525652 
1183.000000	92.426433 
1182.000000	92.326163 
1181.000000	92.220237 
1180.000000	92.108283 
1179.000000	91.996732 
1178.000000	91.888827 
1177.000000	91.778258 
1176.000000	91.656368 
1175.000000	91.520560 
1174.000000	91.373436 
1173.000000	91.219625 
1172.000000	91.065622 
1171.000000	90.915843 
1170.000000	90.765821 
1169.000000	90.606389 
1168.000000	90.438284 
1167.000000	90.276276 
1166.000000	90.136265 
1165.000000	90.025923 
1164.000000	89.950577 
1163.000000	89.918632 
1162.000000	89.935304 
1161.000000	89.996601 
1160.000000	90.091279 
1159.000000	90.200789 
1158.000000	90.296387 
1157.000000	90.348079 
1156.000000	90.343030 
1155.000000	90.290582 
1154.000000	90.207440 
1153.000000	90.103994 
1152.000000	89.986962 
1151.000000	89.865344 
1150.000000	89.745682 
1149.000000	89.626676 
1148.000000	89.504732 
1147.000000	89.380557 
1146.000000	89.255883 
1145.000000	89.128506 
1144.000000	88.995070 
1143.000000	88.855192 
1142.000000	88.710429 
1141.000000	88.563445 
1140.000000	88.419160 
1139.000000	88.280549 
1138.000000	88.142187 
1137.000000	87.995093 
1136.000000	87.838932 
1135.000000	87.681574 
1134.000000	87.525868 
1133.000000	87.366375 
1132.000000	87.201082 
1131.000000	87.035900 
1130.000000	86.874287 
1129.000000	86.712223 
1128.000000	86.547075 
1127.000000	86.381859 
1126.000000	86.217165 
1125.000000	86.048334 
1124.000000	85.874141 
1123.000000	85.699211 
1122.000000	85.525133 
1121.000000	85.348517 
1120.000000	85.169904 
1119.000000	84.994208 
1118.000000	84.820866 
1117.000000	84.645228 
1116.000000	84.470735 
1115.000000	84.306244 
1114.000000	84.149371 
1113.000000	83.986988 
1112.000000	83.814767 
1111.000000	83.640920 
1110.000000	83.468051 
1109.000000	83.287928 
1108.000000	83.098437 
1107.000000	82.909876 
1106.000000	82.729169 
1105.000000	82.551968 
1104.000000	82.374470 
1103.000000	82.198166 
1102.000000	82.019033 
1101.000000	81.827712 
1100.000000	81.625645 
1099.000000	81.426501 
1098.000000	81.237500 
1097.000000	81.053487 
1096.000000	80.871894 
1095.000000	80.696802 
1094.000000	80.524463 
1093.000000	80.342606 
1092.000000	80.149731 
1091.000000	79.959361 
1090.000000	79.781100 
1089.000000	79.613402 
1088.000000	79.456827 
1087.000000	79.315539 
1086.000000	79.182817 
1085.000000	79.045360 
1084.000000	78.905955 
1083.000000	78.781006 
1082.000000	78.671054 
1081.000000	78.555627 
1080.000000	78.424205 
1079.000000	78.291453 
1078.000000	78.174196 
1077.000000	78.072689 
1076.000000	77.981190 
1075.000000	77.896222 
1074.000000	77.806496 
1073.000000	77.694430 
1072.000000	77.555303 
1071.000000	77.397457 
1070.000000	77.219135 
1069.000000	77.005743 
1068.000000	76.756202 
1067.000000	76.491728 
1066.000000	76.230880 
1065.000000	75.974574 
1064.000000	75.722391 
1063.000000	75.480620 
1062.000000	75.244621 
1061.000000	74.995604 
1060.000000	74.726443 
1059.000000	74.452524 
1058.000000	74.188887 
1057.000000	73.935939 
1056.000000	73.694842 
1055.000000	73.474373 
1054.000000	73.272084 
1053.000000	73.069412 
1052.000000	72.856934 
1051.000000	72.644993 
1050.000000	72.439209 
1049.000000	72.228324 
1048.000000	72.006708 
1047.000000	71.784366 
1046.000000	71.565288 
1045.000000	71.339517 
1044.000000	71.103730 
1043.000000	70.867354 
1042.000000	70.631656 
1041.000000	70.383690 
1040.000000	70.118261 
1039.000000	69.847345 
1038.000000	69.583378 
1037.000000	69.333072 
1036.000000	69.109267 
1035.000000	68.924464 
1034.000000	68.767758 
1033.000000	68.611250 
1032.000000	68.443748 
1031.000000	68.276533 
1030.000000	68.117000 
1029.000000	67.964595 
1028.000000	67.832643 
1027.000000	67.741370 
1026.000000	67.683270 
1025.000000	67.624892 
1024.000000	67.549651 
1023.000000	67.470400 
1022.000000	67.395270 
1021.000000	67.313239 
1020.000000	67.220591 
1019.000000	67.130423 
1018.000000	67.046600 
1017.000000	66.957050 
1016.000000	66.861091 
1015.000000	66.774946 
1014.000000	66.702303 
1013.000000	66.627914 
1012.000000	66.547625 
1011.000000	66.475555 
1010.000000	66.414227 
1009.000000	66.348088 
1008.000000	66.275393 
1007.000000	66.215913 
1006.000000	66.176413 
1005.000000	66.138117 
1004.000000	66.090138 
1003.000000	66.047766 
1002.000000	66.025703 
1001.000000	66.019160 
1000.000000	66.021569 
999.000000	 66.034859 
998.000000	 66.052402 
997.000000	 66.058583 
996.000000	 66.056262 
995.000000	 66.069220 
994.000000	 66.106977 
993.000000	 66.151663 
992.000000	 66.188747 
991.000000	 66.225900 
990.000000	 66.272044 
989.000000	 66.323633 
988.000000	 66.382512 
987.000000	 66.462530 
986.000000	 66.566362 
985.000000	 66.677916 
984.000000	 66.788074 
983.000000	 66.907500 
982.000000	 67.046194 
981.000000	 67.202061 
980.000000	 67.376491 
979.000000	 67.578073 
978.000000	 67.802690 
977.000000	 68.032442 
976.000000	 68.262919 
975.000000	 68.510885 
974.000000	 68.787835 
973.000000	 69.086257 
972.000000	 69.397645 
971.000000	 69.723286 
970.000000	 70.061289 
969.000000	 70.403206 
968.000000	 70.749211 
967.000000	 71.107492 
966.000000	 71.474145 
965.000000	 71.832489 
964.000000	 72.175800 
963.000000	 72.512201 
962.000000	 72.845456 
961.000000	 73.171086 
960.000000	 73.493229 
959.000000	 73.823297 
958.000000	 74.157290 
957.000000	 74.474568 
956.000000	 74.764134 
955.000000	 75.034475 
954.000000	 75.295050 
953.000000	 75.546366 
952.000000	 75.790008 
951.000000	 76.028527 
950.000000	 76.252644 
949.000000	 76.448404 
948.000000	 76.620259 
947.000000	 76.787656 
946.000000	 76.955389 
945.000000	 77.107195 
944.000000	 77.232619 
943.000000	 77.340245 
942.000000	 77.440441 
941.000000	 77.535254 
940.000000	 77.630713 
939.000000	 77.738460 
938.000000	 77.857265 
937.000000	 77.970771 
936.000000	 78.070443 
935.000000	 78.164584 
934.000000	 78.260361 
933.000000	 78.354959 
932.000000	 78.449284 
931.000000	 78.551487 
930.000000	 78.660615 
929.000000	 78.764639 
928.000000	 78.861153 
927.000000	 78.963166 
926.000000	 79.078308 
925.000000	 79.198055 
924.000000	 79.312160 
923.000000	 79.417786 
922.000000	 79.511158 
921.000000	 79.587935 
920.000000	 79.656074 
919.000000	 79.730880 
918.000000	 79.812806 
917.000000	 79.886994 
916.000000	 79.948188 
915.000000	 80.008408 
914.000000	 80.077675 
913.000000	 80.158050 
912.000000	 80.260606 
911.000000	 80.404576 
910.000000	 80.590642 
909.000000	 80.795793 
908.000000	 81.005125 
907.000000	 81.230914 
906.000000	 81.490179 
905.000000	 81.781170 
904.000000	 82.092068 
903.000000	 82.417287 
902.000000	 82.754781 
901.000000	 83.098881 
900.000000	 83.444099 
899.000000	 83.787714 
898.000000	 84.125433 
897.000000	 84.453601 
896.000000	 84.775306 
895.000000	 85.093203 
894.000000	 85.398652 
893.000000	 85.682053 
892.000000	 85.951496 
891.000000	 86.224205 
890.000000	 86.499612 
889.000000	 86.758613 
888.000000	 86.991389 
887.000000	 87.208623 
886.000000	 87.422508 
885.000000	 87.634074 
884.000000	 87.843861 
883.000000	 88.058233 
882.000000	 88.279100 
881.000000	 88.502432 
880.000000	 88.732102 
879.000000	 88.979834 
878.000000	 89.246077 
877.000000	 89.516167 
876.000000	 89.780447 
875.000000	 90.043335 
874.000000	 90.309083 
873.000000	 90.574857 
872.000000	 90.841984 
871.000000	 91.117556 
870.000000	 91.399901 
869.000000	 91.677452 
868.000000	 91.945889 
867.000000	 92.211649 
866.000000	 92.474878 
865.000000	 92.724395 
864.000000	 92.955121 
863.000000	 93.176484 
862.000000	 93.397046 
861.000000	 93.613251 
860.000000	 93.820887 
859.000000	 94.026034 
858.000000	 94.235860 
857.000000	 94.446872 
856.000000	 94.648923 
855.000000	 94.833188 
854.000000	 94.991902 
853.000000	 95.120332 
852.000000	 95.225757 
851.000000	 95.326349 
850.000000	 95.434004 
849.000000	 95.543744 
848.000000	 95.643153 
847.000000	 95.723171 
846.000000	 95.776359 
845.000000	 95.797090 
844.000000	 95.791150 
843.000000	 95.774317 
842.000000	 95.751405 
841.000000	 95.705420 
840.000000	 95.618443 
839.000000	 95.497009 
838.000000	 95.366929 
837.000000	 95.247702 
836.000000	 95.140657 
835.000000	 95.036429 
834.000000	 94.924782 
833.000000	 94.803171 
832.000000	 94.686453 
831.000000	 94.603926 
830.000000	 94.575255 
829.000000	 94.590229 
828.000000	 94.619670 
827.000000	 94.643572 
826.000000	 94.662636 
825.000000	 94.688182 
824.000000	 94.730459 
823.000000	 94.792296 
822.000000	 94.862802 
821.000000	 94.918278 
820.000000	 94.937297 
819.000000	 94.915493 
818.000000	 94.863217 
817.000000	 94.790797 
816.000000	 94.698013 
815.000000	 94.574451 
814.000000	 94.405601 
813.000000	 94.178819 
812.000000	 93.885269 
811.000000	 93.516382 
810.000000	 93.060558 
809.000000	 92.507739 
808.000000	 91.858429 
807.000000	 91.125775 
806.000000	 90.330149 
805.000000	 89.497686 
804.000000	 88.662465 
803.000000	 87.858399 
802.000000	 87.106496 
801.000000	 86.422281 
800.000000	 85.836172 
799.000000	 85.387931 
798.000000	 85.096364 
797.000000	 84.952171 
796.000000	 84.941591 
795.000000	 85.052150 
794.000000	 85.249910 
793.000000	 85.479261 
792.000000	 85.699941 
791.000000	 85.906476 
790.000000	 86.101166 
789.000000	 86.264849 
788.000000	 86.363658 
787.000000	 86.370339 
786.000000	 86.272096 
785.000000	 86.073185 
784.000000	 85.800082 
783.000000	 85.492176 
782.000000	 85.178505 
781.000000	 84.874099 
780.000000	 84.602814 
779.000000	 84.405506 
778.000000	 84.315740 
777.000000	 84.341925 
776.000000	 84.478657 
775.000000	 84.715809 
774.000000	 85.028334 
773.000000	 85.378016 
772.000000	 85.738010 
771.000000	 86.101193 
770.000000	 86.456530 
769.000000	 86.775644 
768.000000	 87.035699 
767.000000	 87.241968 
766.000000	 87.415186 
765.000000	 87.567928 
764.000000	 87.705623 
763.000000	 87.838808 
762.000000	 87.976930 
761.000000	 88.113873 
760.000000	 88.233375 
759.000000	 88.329575 
758.000000	 88.415787 
757.000000	 88.513894 
756.000000	 88.637655 
755.000000	 88.781526 
754.000000	 88.923299 
753.000000	 89.044401 
752.000000	 89.150247 
751.000000	 89.263931 
750.000000	 89.398751 
749.000000	 89.546297 
748.000000	 89.693963 
747.000000	 89.842807 
746.000000	 90.002276 
745.000000	 90.177271 
744.000000	 90.368706 
743.000000	 90.579856 
742.000000	 90.813019 
741.000000	 91.061791 
740.000000	 91.311480 
739.000000	 91.547315 
738.000000	 91.763675 
737.000000	 91.968475 
736.000000	 92.175413 
735.000000	 92.386039 
734.000000	 92.582704 
733.000000	 92.746434 
732.000000	 92.878041 
731.000000	 92.992769 
730.000000	 93.098078 
729.000000	 93.189239 
728.000000	 93.266713 
727.000000	 93.341698 
726.000000	 93.419336 
725.000000	 93.492387 
724.000000	 93.559772 
723.000000	 93.638915 
722.000000	 93.749093 
721.000000	 93.888227 
720.000000	 94.032777 
719.000000	 94.156699 
718.000000	 94.248264 
717.000000	 94.316086 
716.000000	 94.383273 
715.000000	 94.468493 
714.000000	 94.566906 
713.000000	 94.654425 
712.000000	 94.712078 
711.000000	 94.737571 
710.000000	 94.733957 
709.000000	 94.702706 
708.000000	 94.654641 
707.000000	 94.611625 
706.000000	 94.580845 
705.000000	 94.536644 
704.000000	 94.440918 
703.000000	 94.273296 
702.000000	 94.031731 
701.000000	 93.712878 
700.000000	 93.308578 
699.000000	 92.824756 
698.000000	 92.295584 
697.000000	 91.783153 
696.000000	 91.367934 
695.000000	 91.124675 
694.000000	 91.089967 
693.000000	 91.243305 
692.000000	 91.518166 
691.000000	 91.838702 
690.000000	 92.153587 
689.000000	 92.444370 
688.000000	 92.709292 
687.000000	 92.944252 
686.000000	 93.144172 
685.000000	 93.316034 
684.000000	 93.478039 
683.000000	 93.641978 
682.000000	 93.800364 
681.000000	 93.936501 
680.000000	 94.045917 
679.000000	 94.144291 
678.000000	 94.252584 
677.000000	 94.375476 
676.000000	 94.503970 
675.000000	 94.634909 
674.000000	 94.774310 
673.000000	 94.922953 
672.000000	 95.073992 
671.000000	 95.227227 
670.000000	 95.396090 
669.000000	 95.587126 
668.000000	 95.759030 
667.000000	 95.860175 
666.000000	 95.898646 
665.000000	 95.912199 
664.000000	 95.941149 
663.000000	 96.014378 
662.000000	 96.130788 
661.000000	 96.259337 
660.000000	 96.367880 
659.000000	 96.440166 
658.000000	 96.466809 
657.000000	 96.446728 
656.000000	 96.409979 
655.000000	 96.410410 
654.000000	 96.465538 
653.000000	 96.529184 
652.000000	 96.550920 
651.000000	 96.535973 
650.000000	 96.526504 

