PE IR                   SPECTRUM    ASCII       PEDS        1.60        
  -1
~SP.SP
22/12/06
12:17:32.00
23/01/09
14:38:57.00
Administrator

650.000000
4









FRONTIER FT-IR,CPU32 MAIN 00.09.9951 07-SEPTEMBER-2011 11:49:41
MIR TGS
MIR
OPTKBR
90694
0.200000

4.000000
STRONG
RATIO
SPECTRUM
MAGNITUDE
MIRACLE ATR
DOUBLE

COMBINED


0


#HDR
-1
-1
#GR
CM-1
%T
0.00002384185791015625
0.0
4000.000000
-1.000000
3351
8
85.535338
71.210400
#DATA
4000.000000	85.503071 
3999.000000	85.502087 
3998.000000	85.501158 
3997.000000	85.500451 
3996.000000	85.500084 
3995.000000	85.500115 
3994.000000	85.500261 
3993.000000	85.500029 
3992.000000	85.499136 
3991.000000	85.497685 
3990.000000	85.496331 
3989.000000	85.495574 
3988.000000	85.495376 
3987.000000	85.495305 
3986.000000	85.495022 
3985.000000	85.494473 
3984.000000	85.493660 
3983.000000	85.492504 
3982.000000	85.491000 
3981.000000	85.489328 
3980.000000	85.487713 
3979.000000	85.486280 
3978.000000	85.485082 
3977.000000	85.484129 
3976.000000	85.483312 
3975.000000	85.482413 
3974.000000	85.481314 
3973.000000	85.480174 
3972.000000	85.479260 
3971.000000	85.478649 
3970.000000	85.478170 
3969.000000	85.477611 
3968.000000	85.476905 
3967.000000	85.476072 
3966.000000	85.475054 
3965.000000	85.473665 
3964.000000	85.471821 
3963.000000	85.469733 
3962.000000	85.467811 
3961.000000	85.466346 
3960.000000	85.465284 
3959.000000	85.464360 
3958.000000	85.463390 
3957.000000	85.462359 
3956.000000	85.461278 
3955.000000	85.460087 
3954.000000	85.458722 
3953.000000	85.457206 
3952.000000	85.455623 
3951.000000	85.454043 
3950.000000	85.452527 
3949.000000	85.451172 
3948.000000	85.450083 
3947.000000	85.449240 
3946.000000	85.448408 
3945.000000	85.447316 
3944.000000	85.445939 
3943.000000	85.444527 
3942.000000	85.443376 
3941.000000	85.442501 
3940.000000	85.441612 
3939.000000	85.440500 
3938.000000	85.439285 
3937.000000	85.438055 
3936.000000	85.436538 
3935.000000	85.434406 
3934.000000	85.431828 
3933.000000	85.429531 
3932.000000	85.428150 
3931.000000	85.427704 
3930.000000	85.427632 
3929.000000	85.427256 
3928.000000	85.426148 
3927.000000	85.424198 
3926.000000	85.421779 
3925.000000	85.419747 
3924.000000	85.418683 
3923.000000	85.418031 
3922.000000	85.416483 
3921.000000	85.413456 
3920.000000	85.409735 
3919.000000	85.406660 
3918.000000	85.405103 
3917.000000	85.405171 
3916.000000	85.406220 
3915.000000	85.407017 
3914.000000	85.406571 
3913.000000	85.405073 
3912.000000	85.403563 
3911.000000	85.402524 
3910.000000	85.401291 
3909.000000	85.398947 
3908.000000	85.395491 
3907.000000	85.391703 
3906.000000	85.388219 
3905.000000	85.384931 
3904.000000	85.381237 
3903.000000	85.376901 
3902.000000	85.372501 
3901.000000	85.369293 
3900.000000	85.368378 
3899.000000	85.369606 
3898.000000	85.371417 
3897.000000	85.372115 
3896.000000	85.371341 
3895.000000	85.369902 
3894.000000	85.368497 
3893.000000	85.366901 
3892.000000	85.364782 
3891.000000	85.362730 
3890.000000	85.361562 
3889.000000	85.360748 
3888.000000	85.359188 
3887.000000	85.356997 
3886.000000	85.355109 
3885.000000	85.354072 
3884.000000	85.353319 
3883.000000	85.351749 
3882.000000	85.349761 
3881.000000	85.349071 
3880.000000	85.350166 
3879.000000	85.351707 
3878.000000	85.351933 
3877.000000	85.350429 
3876.000000	85.348631 
3875.000000	85.348117 
3874.000000	85.348795 
3873.000000	85.349111 
3872.000000	85.347646 
3871.000000	85.344958 
3870.000000	85.343433 
3869.000000	85.344526 
3868.000000	85.346709 
3867.000000	85.347101 
3866.000000	85.345486 
3865.000000	85.344060 
3864.000000	85.343776 
3863.000000	85.343602 
3862.000000	85.342659 
3861.000000	85.341543 
3860.000000	85.341537 
3859.000000	85.343234 
3858.000000	85.346856 
3857.000000	85.352649 
3856.000000	85.359780 
3855.000000	85.364964 
3854.000000	85.365055 
3853.000000	85.362564 
3852.000000	85.362582 
3851.000000	85.362900 
3850.000000	85.359816 
3849.000000	85.355494 
3848.000000	85.353369 
3847.000000	85.353587 
3846.000000	85.354444 
3845.000000	85.354512 
3844.000000	85.353449 
3843.000000	85.351829 
3842.000000	85.350569 
3841.000000	85.350167 
3840.000000	85.350629 
3839.000000	85.351623 
3838.000000	85.352730 
3837.000000	85.353557 
3836.000000	85.353508 
3835.000000	85.352044 
3834.000000	85.349570 
3833.000000	85.347508 
3832.000000	85.347032 
3831.000000	85.348029 
3830.000000	85.349166 
3829.000000	85.349054 
3828.000000	85.347532 
3827.000000	85.345649 
3826.000000	85.344497 
3825.000000	85.344040 
3824.000000	85.343377 
3823.000000	85.342032 
3822.000000	85.340542 
3821.000000	85.339891 
3820.000000	85.340488 
3819.000000	85.341165 
3818.000000	85.340722 
3817.000000	85.340030 
3816.000000	85.340240 
3815.000000	85.341102 
3814.000000	85.341199 
3813.000000	85.339432 
3812.000000	85.336766 
3811.000000	85.335145 
3810.000000	85.334774 
3809.000000	85.334313 
3808.000000	85.332938 
3807.000000	85.331292 
3806.000000	85.330431 
3805.000000	85.329822 
3804.000000	85.328230 
3803.000000	85.325989 
3802.000000	85.323987 
3801.000000	85.322179 
3800.000000	85.320106 
3799.000000	85.316894 
3798.000000	85.312924 
3797.000000	85.310467 
3796.000000	85.310329 
3795.000000	85.310921 
3794.000000	85.310215 
3793.000000	85.307741 
3792.000000	85.304610 
3791.000000	85.302022 
3790.000000	85.300201 
3789.000000	85.298865 
3788.000000	85.297962 
3787.000000	85.297504 
3786.000000	85.297073 
3785.000000	85.296257 
3784.000000	85.295381 
3783.000000	85.294976 
3782.000000	85.295124 
3781.000000	85.295722 
3780.000000	85.296704 
3779.000000	85.297628 
3778.000000	85.297813 
3777.000000	85.296501 
3776.000000	85.293923 
3775.000000	85.291649 
3774.000000	85.290745 
3773.000000	85.290443 
3772.000000	85.289590 
3771.000000	85.288623 
3770.000000	85.288699 
3769.000000	85.289289 
3768.000000	85.288113 
3767.000000	85.284492 
3766.000000	85.281309 
3765.000000	85.281363 
3764.000000	85.283043 
3763.000000	85.281780 
3762.000000	85.275561 
3761.000000	85.267499 
3760.000000	85.261798 
3759.000000	85.259220 
3758.000000	85.258575 
3757.000000	85.259584 
3756.000000	85.262860 
3755.000000	85.268184 
3754.000000	85.274671 
3753.000000	85.281802 
3752.000000	85.288255 
3751.000000	85.292440 
3750.000000	85.294748 
3749.000000	85.296063 
3748.000000	85.294768 
3747.000000	85.288784 
3746.000000	85.279699 
3745.000000	85.270637 
3744.000000	85.265109 
3743.000000	85.264559 
3742.000000	85.258931 
3741.000000	85.242162 
3740.000000	85.226148 
3739.000000	85.218720 
3738.000000	85.211771 
3737.000000	85.196740 
3736.000000	85.178999 
3735.000000	85.171572 
3734.000000	85.177555 
3733.000000	85.188899 
3732.000000	85.197963 
3731.000000	85.201497 
3730.000000	85.196165 
3729.000000	85.180003 
3728.000000	85.158147 
3727.000000	85.140301 
3726.000000	85.131568 
3725.000000	85.128636 
3724.000000	85.124851 
3723.000000	85.118363 
3722.000000	85.112476 
3721.000000	85.109537 
3720.000000	85.108119 
3719.000000	85.104904 
3718.000000	85.098167 
3717.000000	85.088614 
3716.000000	85.078216 
3715.000000	85.068661 
3714.000000	85.060624 
3713.000000	85.052568 
3712.000000	85.040816 
3711.000000	85.023389 
3710.000000	85.001361 
3709.000000	84.976963 
3708.000000	84.953741 
3707.000000	84.935746 
3706.000000	84.923979 
3705.000000	84.914744 
3704.000000	84.901978 
3703.000000	84.881627 
3702.000000	84.854519 
3701.000000	84.825423 
3700.000000	84.797887 
3699.000000	84.771499 
3698.000000	84.745547 
3697.000000	84.721891 
3696.000000	84.702163 
3695.000000	84.685235 
3694.000000	84.670432 
3693.000000	84.660794 
3692.000000	84.658727 
3691.000000	84.658512 
3690.000000	84.649473 
3689.000000	84.629567 
3688.000000	84.609634 
3687.000000	84.597424 
3686.000000	84.587347 
3685.000000	84.573390 
3684.000000	84.559191 
3683.000000	84.549811 
3682.000000	84.543469 
3681.000000	84.534881 
3680.000000	84.521726 
3679.000000	84.504855 
3678.000000	84.483671 
3677.000000	84.458293 
3676.000000	84.436003 
3675.000000	84.429090 
3674.000000	84.437468 
3673.000000	84.442347 
3672.000000	84.433617 
3671.000000	84.419473 
3670.000000	84.405717 
3669.000000	84.393124 
3668.000000	84.381724 
3667.000000	84.370120 
3666.000000	84.360075 
3665.000000	84.353215 
3664.000000	84.346965 
3663.000000	84.339606 
3662.000000	84.333733 
3661.000000	84.332158 
3660.000000	84.333827 
3659.000000	84.335831 
3658.000000	84.337994 
3657.000000	84.344071 
3656.000000	84.356524 
3655.000000	84.370959 
3654.000000	84.377486 
3653.000000	84.372808 
3652.000000	84.365918 
3651.000000	84.364383 
3650.000000	84.365295 
3649.000000	84.366332 
3648.000000	84.372042 
3647.000000	84.384091 
3646.000000	84.397149 
3645.000000	84.406233 
3644.000000	84.412837 
3643.000000	84.421992 
3642.000000	84.435319 
3641.000000	84.448731 
3640.000000	84.457397 
3639.000000	84.461189 
3638.000000	84.463894 
3637.000000	84.467716 
3636.000000	84.471139 
3635.000000	84.473342 
3634.000000	84.476658 
3633.000000	84.482994 
3632.000000	84.490313 
3631.000000	84.495517 
3630.000000	84.497263 
3629.000000	84.496688 
3628.000000	84.498430 
3627.000000	84.501941 
3626.000000	84.501363 
3625.000000	84.499691 
3624.000000	84.504209 
3623.000000	84.513506 
3622.000000	84.521367 
3621.000000	84.525873 
3620.000000	84.530175 
3619.000000	84.536989 
3618.000000	84.545108 
3617.000000	84.550892 
3616.000000	84.552402 
3615.000000	84.551543 
3614.000000	84.551614 
3613.000000	84.554348 
3612.000000	84.559495 
3611.000000	84.566154 
3610.000000	84.574613 
3609.000000	84.586460 
3608.000000	84.601798 
3607.000000	84.617519 
3606.000000	84.629603 
3605.000000	84.636724 
3604.000000	84.640922 
3603.000000	84.644757 
3602.000000	84.649312 
3601.000000	84.654796 
3600.000000	84.660561 
3599.000000	84.664357 
3598.000000	84.663793 
3597.000000	84.659400 
3596.000000	84.654715 
3595.000000	84.653560 
3594.000000	84.657530 
3593.000000	84.665439 
3592.000000	84.674351 
3591.000000	84.681626 
3590.000000	84.686115 
3589.000000	84.688130 
3588.000000	84.689923 
3587.000000	84.694954 
3586.000000	84.703782 
3585.000000	84.712268 
3584.000000	84.716968 
3583.000000	84.719152 
3582.000000	84.722064 
3581.000000	84.726979 
3580.000000	84.732407 
3579.000000	84.736120 
3578.000000	84.737355 
3577.000000	84.736981 
3576.000000	84.735455 
3575.000000	84.731836 
3574.000000	84.725523 
3573.000000	84.717857 
3572.000000	84.710935 
3571.000000	84.704940 
3570.000000	84.697851 
3569.000000	84.688093 
3568.000000	84.677746 
3567.000000	84.672259 
3566.000000	84.675375 
3565.000000	84.685218 
3564.000000	84.696945 
3563.000000	84.707272 
3562.000000	84.714851 
3561.000000	84.719171 
3560.000000	84.720919 
3559.000000	84.721920 
3558.000000	84.723469 
3557.000000	84.724939 
3556.000000	84.724567 
3555.000000	84.721457 
3554.000000	84.716797 
3553.000000	84.712895 
3552.000000	84.710934 
3551.000000	84.709929 
3550.000000	84.708052 
3549.000000	84.704584 
3548.000000	84.700194 
3547.000000	84.696105 
3546.000000	84.694031 
3545.000000	84.696075 
3544.000000	84.702840 
3543.000000	84.711665 
3542.000000	84.717976 
3541.000000	84.718983 
3540.000000	84.715597 
3539.000000	84.711091 
3538.000000	84.708292 
3537.000000	84.707835 
3536.000000	84.708605 
3535.000000	84.709212 
3534.000000	84.708854 
3533.000000	84.707241 
3532.000000	84.704093 
3531.000000	84.699145 
3530.000000	84.692818 
3529.000000	84.686607 
3528.000000	84.682076 
3527.000000	84.679406 
3526.000000	84.677501 
3525.000000	84.675539 
3524.000000	84.673844 
3523.000000	84.673059 
3522.000000	84.673244 
3521.000000	84.674121 
3520.000000	84.675478 
3519.000000	84.676817 
3518.000000	84.677202 
3517.000000	84.676141 
3516.000000	84.674304 
3515.000000	84.672721 
3514.000000	84.671225 
3513.000000	84.668344 
3512.000000	84.663029 
3511.000000	84.656139 
3510.000000	84.650064 
3509.000000	84.646707 
3508.000000	84.645930 
3507.000000	84.645851 
3506.000000	84.644442 
3505.000000	84.641173 
3504.000000	84.637148 
3503.000000	84.633882 
3502.000000	84.631939 
3501.000000	84.630748 
3500.000000	84.629469 
3499.000000	84.627755 
3498.000000	84.625746 
3497.000000	84.623723 
3496.000000	84.621785 
3495.000000	84.619696 
3494.000000	84.617107 
3493.000000	84.614024 
3492.000000	84.610923 
3491.000000	84.608313 
3490.000000	84.606240 
3489.000000	84.604323 
3488.000000	84.602164 
3487.000000	84.599679 
3486.000000	84.596996 
3485.000000	84.594242 
3484.000000	84.591491 
3483.000000	84.588798 
3482.000000	84.586172 
3481.000000	84.583558 
3480.000000	84.580900 
3479.000000	84.578201 
3478.000000	84.575489 
3477.000000	84.572766 
3476.000000	84.570026 
3475.000000	84.567282 
3474.000000	84.564552 
3473.000000	84.561839 
3472.000000	84.559139 
3471.000000	84.556454 
3470.000000	84.553785 
3469.000000	84.551133 
3468.000000	84.548501 
3467.000000	84.545888 
3466.000000	84.543284 
3465.000000	84.540678 
3464.000000	84.538060 
3463.000000	84.535426 
3462.000000	84.532776 
3461.000000	84.530109 
3460.000000	84.527426 
3459.000000	84.524728 
3458.000000	84.522018 
3457.000000	84.519297 
3456.000000	84.516566 
3455.000000	84.513818 
3454.000000	84.511052 
3453.000000	84.508273 
3452.000000	84.505487 
3451.000000	84.502698 
3450.000000	84.499903 
3449.000000	84.497095 
3448.000000	84.494277 
3447.000000	84.491455 
3446.000000	84.488638 
3445.000000	84.485824 
3444.000000	84.483011 
3443.000000	84.480194 
3442.000000	84.477367 
3441.000000	84.474526 
3440.000000	84.471692 
3439.000000	84.468910 
3438.000000	84.466203 
3437.000000	84.463508 
3436.000000	84.460721 
3435.000000	84.457817 
3434.000000	84.454945 
3433.000000	84.452308 
3432.000000	84.449979 
3431.000000	84.447847 
3430.000000	84.445712 
3429.000000	84.443446 
3428.000000	84.441040 
3427.000000	84.438574 
3426.000000	84.436159 
3425.000000	84.433852 
3424.000000	84.431615 
3423.000000	84.429335 
3422.000000	84.426921 
3421.000000	84.424372 
3420.000000	84.421805 
3419.000000	84.419421 
3418.000000	84.417408 
3417.000000	84.415758 
3416.000000	84.414100 
3415.000000	84.411889 
3414.000000	84.408928 
3413.000000	84.405731 
3412.000000	84.403173 
3411.000000	84.401668 
3410.000000	84.400784 
3409.000000	84.399697 
3408.000000	84.397934 
3407.000000	84.395685 
3406.000000	84.393591 
3405.000000	84.392240 
3404.000000	84.391667 
3403.000000	84.391221 
3402.000000	84.390105 
3401.000000	84.388268 
3400.000000	84.386635 
3399.000000	84.386282 
3398.000000	84.387394 
3397.000000	84.389010 
3396.000000	84.389793 
3395.000000	84.389180 
3394.000000	84.387732 
3393.000000	84.386558 
3392.000000	84.386346 
3391.000000	84.386925 
3390.000000	84.387598 
3389.000000	84.387700 
3388.000000	84.386890 
3387.000000	84.385183 
3386.000000	84.383034 
3385.000000	84.381269 
3384.000000	84.380617 
3383.000000	84.381183 
3382.000000	84.382483 
3381.000000	84.384021 
3380.000000	84.385638 
3379.000000	84.387256 
3378.000000	84.388537 
3377.000000	84.389070 
3376.000000	84.388900 
3375.000000	84.388730 
3374.000000	84.389473 
3373.000000	84.391587 
3372.000000	84.394742 
3371.000000	84.397976 
3370.000000	84.400220 
3369.000000	84.400865 
3368.000000	84.400036 
3367.000000	84.398525 
3366.000000	84.397367 
3365.000000	84.397253 
3364.000000	84.398316 
3363.000000	84.400344 
3362.000000	84.403040 
3361.000000	84.406057 
3360.000000	84.408952 
3359.000000	84.411347 
3358.000000	84.413198 
3357.000000	84.414796 
3356.000000	84.416423 
3355.000000	84.417998 
3354.000000	84.419172 
3353.000000	84.419769 
3352.000000	84.420081 
3351.000000	84.420680 
3350.000000	84.421909 
3349.000000	84.423592 
3348.000000	84.425234 
3347.000000	84.426532 
3346.000000	84.427688 
3345.000000	84.429152 
3344.000000	84.431095 
3343.000000	84.433207 
3342.000000	84.434979 
3341.000000	84.436184 
3340.000000	84.436994 
3339.000000	84.437788 
3338.000000	84.438850 
3337.000000	84.440220 
3336.000000	84.441736 
3335.000000	84.443130 
3334.000000	84.444191 
3333.000000	84.444921 
3332.000000	84.445543 
3331.000000	84.446345 
3330.000000	84.447448 
3329.000000	84.448729 
3328.000000	84.449948 
3327.000000	84.450932 
3326.000000	84.451685 
3325.000000	84.452334 
3324.000000	84.453016 
3323.000000	84.453800 
3322.000000	84.454684 
3321.000000	84.455624 
3320.000000	84.456553 
3319.000000	84.457417 
3318.000000	84.458191 
3317.000000	84.458884 
3316.000000	84.459522 
3315.000000	84.460105 
3314.000000	84.460598 
3313.000000	84.460950 
3312.000000	84.461142 
3311.000000	84.461272 
3310.000000	84.461587 
3309.000000	84.462312 
3308.000000	84.463434 
3307.000000	84.464658 
3306.000000	84.465648 
3305.000000	84.466339 
3304.000000	84.466926 
3303.000000	84.467610 
3302.000000	84.468351 
3301.000000	84.468928 
3300.000000	84.469230 
3299.000000	84.469386 
3298.000000	84.469652 
3297.000000	84.470208 
3296.000000	84.471078 
3295.000000	84.472154 
3294.000000	84.473208 
3293.000000	84.473947 
3292.000000	84.474167 
3291.000000	84.473917 
3290.000000	84.473548 
3289.000000	84.473485 
3288.000000	84.473915 
3287.000000	84.474666 
3286.000000	84.475293 
3285.000000	84.475416 
3284.000000	84.474981 
3283.000000	84.474309 
3282.000000	84.473888 
3281.000000	84.473996 
3280.000000	84.474510 
3279.000000	84.475024 
3278.000000	84.475242 
3277.000000	84.475278 
3276.000000	84.475527 
3275.000000	84.476274 
3274.000000	84.477432 
3273.000000	84.478621 
3272.000000	84.479459 
3271.000000	84.479744 
3270.000000	84.479465 
3269.000000	84.478805 
3268.000000	84.478095 
3267.000000	84.477645 
3266.000000	84.477543 
3265.000000	84.477616 
3264.000000	84.477615 
3263.000000	84.477430 
3262.000000	84.477132 
3261.000000	84.476813 
3260.000000	84.476445 
3259.000000	84.475903 
3258.000000	84.475086 
3257.000000	84.474081 
3256.000000	84.473222 
3255.000000	84.472873 
3254.000000	84.473086 
3253.000000	84.473475 
3252.000000	84.473542 
3251.000000	84.473105 
3250.000000	84.472359 
3249.000000	84.471642 
3248.000000	84.471190 
3247.000000	84.471025 
3246.000000	84.470900 
3245.000000	84.470378 
3244.000000	84.469187 
3243.000000	84.467523 
3242.000000	84.465981 
3241.000000	84.465014 
3240.000000	84.464501 
3239.000000	84.463935 
3238.000000	84.462975 
3237.000000	84.461777 
3236.000000	84.460804 
3235.000000	84.460406 
3234.000000	84.460540 
3233.000000	84.460859 
3232.000000	84.460986 
3231.000000	84.460750 
3230.000000	84.460238 
3229.000000	84.459702 
3228.000000	84.459429 
3227.000000	84.459573 
3226.000000	84.460012 
3225.000000	84.460324 
3224.000000	84.460074 
3223.000000	84.459206 
3222.000000	84.458191 
3221.000000	84.457705 
3220.000000	84.457986 
3219.000000	84.458659 
3218.000000	84.459108 
3217.000000	84.459114 
3216.000000	84.458981 
3215.000000	84.459130 
3214.000000	84.459675 
3213.000000	84.460448 
3212.000000	84.461275 
3211.000000	84.462121 
3210.000000	84.462984 
3209.000000	84.463800 
3208.000000	84.464519 
3207.000000	84.465191 
3206.000000	84.465909 
3205.000000	84.466694 
3204.000000	84.467481 
3203.000000	84.468224 
3202.000000	84.468968 
3201.000000	84.469827 
3200.000000	84.470891 
3199.000000	84.472171 
3198.000000	84.473582 
3197.000000	84.474990 
3196.000000	84.476299 
3195.000000	84.477510 
3194.000000	84.478687 
3193.000000	84.479893 
3192.000000	84.481133 
3191.000000	84.482377 
3190.000000	84.483596 
3189.000000	84.484793 
3188.000000	84.485988 
3187.000000	84.487198 
3186.000000	84.488427 
3185.000000	84.489678 
3184.000000	84.490943 
3183.000000	84.492212 
3182.000000	84.493473 
3181.000000	84.494723 
3180.000000	84.495960 
3179.000000	84.497188 
3178.000000	84.498407 
3177.000000	84.499618 
3176.000000	84.500820 
3175.000000	84.502014 
3174.000000	84.503199 
3173.000000	84.504378 
3172.000000	84.505548 
3171.000000	84.506706 
3170.000000	84.507847 
3169.000000	84.508974 
3168.000000	84.510090 
3167.000000	84.511199 
3166.000000	84.512302 
3165.000000	84.513399 
3164.000000	84.514489 
3163.000000	84.515572 
3162.000000	84.516642 
3161.000000	84.517696 
3160.000000	84.518729 
3159.000000	84.519736 
3158.000000	84.520714 
3157.000000	84.521658 
3156.000000	84.522568 
3155.000000	84.523447 
3154.000000	84.524303 
3153.000000	84.525145 
3152.000000	84.525981 
3151.000000	84.526814 
3150.000000	84.527643 
3149.000000	84.528469 
3148.000000	84.529292 
3147.000000	84.530116 
3146.000000	84.530940 
3145.000000	84.531764 
3144.000000	84.532581 
3143.000000	84.533381 
3142.000000	84.534158 
3141.000000	84.534913 
3140.000000	84.535656 
3139.000000	84.536398 
3138.000000	84.537147 
3137.000000	84.537903 
3136.000000	84.538653 
3135.000000	84.539386 
3134.000000	84.540099 
3133.000000	84.540795 
3132.000000	84.541485 
3131.000000	84.542171 
3130.000000	84.542847 
3129.000000	84.543501 
3128.000000	84.544127 
3127.000000	84.544726 
3126.000000	84.545302 
3125.000000	84.545863 
3124.000000	84.546407 
3123.000000	84.546933 
3122.000000	84.547435 
3121.000000	84.547912 
3120.000000	84.548370 
3119.000000	84.548825 
3118.000000	84.549292 
3117.000000	84.549780 
3116.000000	84.550286 
3115.000000	84.550802 
3114.000000	84.551320 
3113.000000	84.551833 
3112.000000	84.552339 
3111.000000	84.552838 
3110.000000	84.553331 
3109.000000	84.553817 
3108.000000	84.554310 
3107.000000	84.554801 
3106.000000	84.555195 
3105.000000	84.555425 
3104.000000	84.555637 
3103.000000	84.556142 
3102.000000	84.557140 
3101.000000	84.558372 
3100.000000	84.559180 
3099.000000	84.559134 
3098.000000	84.558669 
3097.000000	84.558541 
3096.000000	84.558466 
3095.000000	84.557131 
3094.000000	84.554206 
3093.000000	84.551588 
3092.000000	84.551563 
3091.000000	84.554081 
3090.000000	84.556834 
3089.000000	84.557973 
3088.000000	84.557809 
3087.000000	84.557745 
3086.000000	84.558322 
3085.000000	84.558797 
3084.000000	84.558310 
3083.000000	84.556959 
3082.000000	84.555677 
3081.000000	84.555425 
3080.000000	84.556813 
3079.000000	84.560270 
3078.000000	84.565754 
3077.000000	84.571877 
3076.000000	84.576095 
3075.000000	84.576720 
3074.000000	84.574629 
3073.000000	84.572330 
3072.000000	84.571501 
3071.000000	84.572044 
3070.000000	84.573010 
3069.000000	84.573159 
3068.000000	84.570697 
3067.000000	84.564169 
3066.000000	84.554489 
3065.000000	84.545240 
3064.000000	84.540141 
3063.000000	84.540528 
3062.000000	84.545295 
3061.000000	84.552066 
3060.000000	84.557944 
3059.000000	84.560528 
3058.000000	84.559514 
3057.000000	84.556961 
3056.000000	84.555054 
3055.000000	84.553588 
3054.000000	84.550023 
3053.000000	84.541685 
3052.000000	84.527949 
3051.000000	84.511260 
3050.000000	84.496363 
3049.000000	84.487252 
3048.000000	84.483804 
3047.000000	84.482063 
3046.000000	84.478443 
3045.000000	84.472659 
3044.000000	84.466017 
3043.000000	84.458404 
3042.000000	84.448614 
3041.000000	84.436676 
3040.000000	84.423819 
3039.000000	84.410302 
3038.000000	84.395036 
3037.000000	84.377427 
3036.000000	84.357870 
3035.000000	84.336394 
3034.000000	84.312522 
3033.000000	84.286735 
3032.000000	84.260976 
3031.000000	84.236590 
3030.000000	84.211790 
3029.000000	84.182757 
3028.000000	84.147666 
3027.000000	84.108674 
3026.000000	84.069726 
3025.000000	84.033001 
3024.000000	83.997689 
3023.000000	83.961621 
3022.000000	83.923557 
3021.000000	83.883943 
3020.000000	83.843893 
3019.000000	83.803824 
3018.000000	83.763287 
3017.000000	83.721991 
3016.000000	83.680382 
3015.000000	83.638681 
3014.000000	83.595482 
3013.000000	83.548108 
3012.000000	83.494991 
3011.000000	83.437580 
3010.000000	83.379354 
3009.000000	83.322876 
3008.000000	83.268098 
3007.000000	83.213420 
3006.000000	83.157850 
3005.000000	83.101965 
3004.000000	83.047235 
3003.000000	82.994795 
3002.000000	82.944597 
3001.000000	82.895427 
3000.000000	82.845830 
2999.000000	82.795534 
2998.000000	82.746492 
2997.000000	82.702496 
2996.000000	82.666229 
2995.000000	82.633970 
2994.000000	82.592340 
2993.000000	82.524081 
2992.000000	82.422980 
2991.000000	82.304921 
2990.000000	82.200736 
2989.000000	82.134644 
2988.000000	82.109774 
2987.000000	82.113068 
2986.000000	82.129347 
2985.000000	82.148003 
2984.000000	82.160384 
2983.000000	82.159282 
2982.000000	82.144057 
2981.000000	82.122505 
2980.000000	82.104574 
2979.000000	82.095101 
2978.000000	82.092990 
2977.000000	82.094594 
2976.000000	82.096430 
2975.000000	82.097398 
2974.000000	82.101362 
2973.000000	82.116672 
2972.000000	82.150639 
2971.000000	82.204197 
2970.000000	82.272658 
2969.000000	82.350791 
2968.000000	82.435727 
2967.000000	82.525507 
2966.000000	82.616633 
2965.000000	82.703983 
2964.000000	82.782865 
2963.000000	82.850915 
2962.000000	82.908150 
2961.000000	82.955594 
2960.000000	82.994720 
2959.000000	83.028619 
2958.000000	83.062162 
2957.000000	83.098585 
2956.000000	83.135903 
2955.000000	83.169080 
2954.000000	83.196482 
2953.000000	83.221881 
2952.000000	83.248860 
2951.000000	83.275417 
2950.000000	83.296295 
2949.000000	83.309269 
2948.000000	83.316673 
2947.000000	83.321636 
2946.000000	83.325536 
2945.000000	83.329270 
2944.000000	83.334750 
2943.000000	83.344218 
2942.000000	83.358694 
2941.000000	83.377101 
2940.000000	83.396526 
2939.000000	83.414185 
2938.000000	83.430469 
2937.000000	83.449778 
2936.000000	83.476844 
2935.000000	83.511768 
2934.000000	83.549374 
2933.000000	83.583498 
2932.000000	83.611414 
2931.000000	83.634612 
2930.000000	83.656598 
2929.000000	83.679962 
2928.000000	83.704233 
2927.000000	83.726020 
2926.000000	83.741969 
2925.000000	83.752135 
2924.000000	83.760110 
2923.000000	83.769612 
2922.000000	83.781076 
2921.000000	83.791225 
2920.000000	83.795155 
2919.000000	83.788391 
2918.000000	83.767207 
2917.000000	83.727782 
2916.000000	83.666651 
2915.000000	83.583884 
2914.000000	83.486500 
2913.000000	83.387491 
2912.000000	83.299528 
2911.000000	83.228652 
2910.000000	83.173244 
2909.000000	83.127607 
2908.000000	83.086069 
2907.000000	83.044874 
2906.000000	83.001585 
2905.000000	82.953570 
2904.000000	82.898680 
2903.000000	82.840116 
2902.000000	82.790814 
2901.000000	82.768790 
2900.000000	82.783759 
2899.000000	82.826989 
2898.000000	82.875953 
2897.000000	82.910619 
2896.000000	82.925633 
2895.000000	82.928427 
2894.000000	82.929046 
2893.000000	82.932946 
2892.000000	82.940668 
2891.000000	82.950363 
2890.000000	82.959291 
2889.000000	82.964388 
2888.000000	82.963505 
2887.000000	82.957548 
2886.000000	82.951607 
2885.000000	82.953175 
2884.000000	82.968019 
2883.000000	82.996828 
2882.000000	83.035360 
2881.000000	83.077700 
2880.000000	83.119673 
2879.000000	83.160108 
2878.000000	83.199606 
2877.000000	83.238353 
2876.000000	83.274940 
2875.000000	83.307245 
2874.000000	83.334361 
2873.000000	83.357541 
2872.000000	83.379562 
2871.000000	83.403564 
2870.000000	83.431949 
2869.000000	83.464928 
2868.000000	83.499837 
2867.000000	83.533310 
2866.000000	83.565170 
2865.000000	83.599449 
2864.000000	83.640795 
2863.000000	83.690578 
2862.000000	83.746868 
2861.000000	83.806657 
2860.000000	83.866748 
2859.000000	83.923823 
2858.000000	83.976112 
2857.000000	84.025055 
2856.000000	84.073614 
2855.000000	84.122548 
2854.000000	84.169683 
2853.000000	84.212664 
2852.000000	84.250366 
2851.000000	84.281174 
2850.000000	84.301551 
2849.000000	84.307442 
2848.000000	84.296896 
2847.000000	84.271763 
2846.000000	84.238262 
2845.000000	84.205871 
2844.000000	84.183312 
2843.000000	84.173513 
2842.000000	84.172095 
2841.000000	84.171419 
2840.000000	84.166589 
2839.000000	84.158254 
2838.000000	84.150592 
2837.000000	84.147069 
2836.000000	84.147734 
2835.000000	84.149997 
2834.000000	84.151602 
2833.000000	84.152485 
2832.000000	84.153806 
2831.000000	84.155969 
2830.000000	84.158225 
2829.000000	84.159658 
2828.000000	84.159777 
2827.000000	84.158643 
2826.000000	84.157417 
2825.000000	84.158515 
2824.000000	84.163968 
2823.000000	84.173358 
2822.000000	84.184134 
2821.000000	84.193948 
2820.000000	84.201835 
2819.000000	84.207296 
2818.000000	84.209781 
2817.000000	84.209940 
2816.000000	84.210316 
2815.000000	84.213503 
2814.000000	84.219550 
2813.000000	84.225702 
2812.000000	84.228857 
2811.000000	84.228227 
2810.000000	84.225923 
2809.000000	84.225159 
2808.000000	84.227709 
2807.000000	84.232790 
2806.000000	84.238058 
2805.000000	84.241462 
2804.000000	84.242390 
2803.000000	84.241749 
2802.000000	84.241352 
2801.000000	84.242856 
2800.000000	84.246500 
2799.000000	84.250798 
2798.000000	84.253876 
2797.000000	84.254989 
2796.000000	84.254738 
2795.000000	84.254267 
2794.000000	84.254324 
2793.000000	84.254983 
2792.000000	84.256043 
2791.000000	84.257457 
2790.000000	84.259382 
2789.000000	84.261931 
2788.000000	84.264897 
2787.000000	84.267719 
2786.000000	84.269852 
2785.000000	84.271217 
2784.000000	84.272227 
2783.000000	84.273374 
2782.000000	84.274795 
2781.000000	84.276271 
2780.000000	84.277539 
2779.000000	84.278567 
2778.000000	84.279563 
2777.000000	84.280755 
2776.000000	84.282181 
2775.000000	84.283718 
2774.000000	84.285250 
2773.000000	84.286752 
2772.000000	84.288217 
2771.000000	84.289600 
2770.000000	84.290863 
2769.000000	84.292003 
2768.000000	84.293039 
2767.000000	84.294038 
2766.000000	84.295162 
2765.000000	84.296551 
2764.000000	84.298164 
2763.000000	84.299798 
2762.000000	84.301264 
2761.000000	84.302557 
2760.000000	84.303766 
2759.000000	84.304976 
2758.000000	84.306216 
2757.000000	84.307497 
2756.000000	84.308829 
2755.000000	84.310211 
2754.000000	84.311620 
2753.000000	84.313031 
2752.000000	84.314437 
2751.000000	84.315850 
2750.000000	84.317272 
2749.000000	84.318682 
2748.000000	84.320059 
2747.000000	84.321401 
2746.000000	84.322735 
2745.000000	84.324083 
2744.000000	84.325436 
2743.000000	84.326775 
2742.000000	84.328094 
2741.000000	84.329414 
2740.000000	84.330768 
2739.000000	84.332156 
2738.000000	84.333537 
2737.000000	84.334879 
2736.000000	84.336181 
2735.000000	84.337453 
2734.000000	84.338685 
2733.000000	84.339882 
2732.000000	84.341068 
2731.000000	84.342240 
2730.000000	84.343374 
2729.000000	84.344489 
2728.000000	84.345657 
2727.000000	84.346936 
2726.000000	84.348278 
2725.000000	84.349543 
2724.000000	84.350639 
2723.000000	84.351591 
2722.000000	84.352466 
2721.000000	84.353362 
2720.000000	84.354434 
2719.000000	84.355775 
2718.000000	84.357228 
2717.000000	84.358517 
2716.000000	84.359594 
2715.000000	84.360678 
2714.000000	84.361924 
2713.000000	84.363168 
2712.000000	84.364099 
2711.000000	84.364579 
2710.000000	84.364758 
2709.000000	84.364976 
2708.000000	84.365542 
2707.000000	84.366486 
2706.000000	84.367540 
2705.000000	84.368521 
2704.000000	84.369714 
2703.000000	84.371597 
2702.000000	84.374067 
2701.000000	84.376150 
2700.000000	84.376808 
2699.000000	84.375888 
2698.000000	84.374285 
2697.000000	84.373202 
2696.000000	84.373175 
2695.000000	84.373855 
2694.000000	84.374522 
2693.000000	84.374870 
2692.000000	84.375394 
2691.000000	84.376959 
2690.000000	84.379869 
2689.000000	84.383315 
2688.000000	84.385906 
2687.000000	84.386965 
2686.000000	84.387171 
2685.000000	84.387714 
2684.000000	84.388727 
2683.000000	84.388947 
2682.000000	84.387233 
2681.000000	84.384076 
2680.000000	84.381330 
2679.000000	84.380323 
2678.000000	84.380655 
2677.000000	84.380892 
2676.000000	84.380242 
2675.000000	84.379326 
2674.000000	84.379296 
2673.000000	84.380594 
2672.000000	84.382670 
2671.000000	84.384675 
2670.000000	84.386244 
2669.000000	84.387570 
2668.000000	84.388879 
2667.000000	84.390070 
2666.000000	84.390836 
2665.000000	84.390986 
2664.000000	84.390576 
2663.000000	84.389868 
2662.000000	84.389281 
2661.000000	84.389145 
2660.000000	84.389347 
2659.000000	84.389412 
2658.000000	84.389120 
2657.000000	84.388855 
2656.000000	84.389097 
2655.000000	84.389745 
2654.000000	84.390247 
2653.000000	84.390282 
2652.000000	84.390021 
2651.000000	84.389727 
2650.000000	84.389466 
2649.000000	84.389232 
2648.000000	84.389068 
2647.000000	84.388972 
2646.000000	84.388862 
2645.000000	84.388711 
2644.000000	84.388575 
2643.000000	84.388481 
2642.000000	84.388404 
2641.000000	84.388331 
2640.000000	84.388260 
2639.000000	84.388182 
2638.000000	84.388094 
2637.000000	84.388004 
2636.000000	84.387920 
2635.000000	84.387848 
2634.000000	84.387781 
2633.000000	84.387705 
2632.000000	84.387609 
2631.000000	84.387491 
2630.000000	84.387352 
2629.000000	84.387196 
2628.000000	84.387027 
2627.000000	84.386849 
2626.000000	84.386665 
2625.000000	84.386472 
2624.000000	84.386262 
2623.000000	84.386032 
2622.000000	84.385782 
2621.000000	84.385519 
2620.000000	84.385250 
2619.000000	84.384978 
2618.000000	84.384702 
2617.000000	84.384417 
2616.000000	84.384122 
2615.000000	84.383819 
2614.000000	84.383516 
2613.000000	84.383219 
2612.000000	84.382936 
2611.000000	84.382668 
2610.000000	84.382414 
2609.000000	84.382175 
2608.000000	84.381949 
2607.000000	84.381733 
2606.000000	84.381517 
2605.000000	84.381286 
2604.000000	84.381029 
2603.000000	84.380745 
2602.000000	84.380441 
2601.000000	84.380128 
2600.000000	84.379812 
2599.000000	84.379492 
2598.000000	84.379166 
2597.000000	84.378840 
2596.000000	84.378531 
2595.000000	84.378252 
2594.000000	84.378000 
2593.000000	84.377744 
2592.000000	84.377446 
2591.000000	84.377089 
2590.000000	84.376688 
2589.000000	84.376281 
2588.000000	84.375892 
2587.000000	84.375523 
2586.000000	84.375179 
2585.000000	84.374868 
2584.000000	84.374578 
2583.000000	84.374263 
2582.000000	84.373877 
2581.000000	84.373444 
2580.000000	84.373067 
2579.000000	84.372834 
2578.000000	84.372734 
2577.000000	84.372674 
2576.000000	84.372576 
2575.000000	84.372441 
2574.000000	84.372328 
2573.000000	84.372280 
2572.000000	84.372265 
2571.000000	84.372193 
2570.000000	84.372013 
2569.000000	84.371770 
2568.000000	84.371545 
2567.000000	84.371326 
2566.000000	84.371024 
2565.000000	84.370601 
2564.000000	84.370142 
2563.000000	84.369771 
2562.000000	84.369519 
2561.000000	84.369342 
2560.000000	84.369201 
2559.000000	84.369093 
2558.000000	84.368980 
2557.000000	84.368778 
2556.000000	84.368467 
2555.000000	84.368150 
2554.000000	84.367952 
2553.000000	84.367862 
2552.000000	84.367720 
2551.000000	84.367414 
2550.000000	84.366986 
2549.000000	84.366573 
2548.000000	84.366257 
2547.000000	84.366016 
2546.000000	84.365780 
2545.000000	84.365499 
2544.000000	84.365171 
2543.000000	84.364822 
2542.000000	84.364488 
2541.000000	84.364189 
2540.000000	84.363920 
2539.000000	84.363650 
2538.000000	84.363343 
2537.000000	84.362973 
2536.000000	84.362536 
2535.000000	84.362053 
2534.000000	84.361561 
2533.000000	84.361093 
2532.000000	84.360659 
2531.000000	84.360239 
2530.000000	84.359801 
2529.000000	84.359335 
2528.000000	84.358846 
2527.000000	84.358332 
2526.000000	84.357789 
2525.000000	84.357223 
2524.000000	84.356651 
2523.000000	84.356098 
2522.000000	84.355590 
2521.000000	84.355143 
2520.000000	84.354728 
2519.000000	84.354274 
2518.000000	84.353739 
2517.000000	84.353171 
2516.000000	84.352657 
2515.000000	84.352223 
2514.000000	84.351823 
2513.000000	84.351419 
2512.000000	84.351017 
2511.000000	84.350628 
2510.000000	84.350229 
2509.000000	84.349771 
2508.000000	84.349212 
2507.000000	84.348547 
2506.000000	84.347873 
2505.000000	84.347388 
2504.000000	84.347249 
2503.000000	84.347427 
2502.000000	84.347599 
2501.000000	84.347391 
2500.000000	84.346693 
2499.000000	84.345704 
2498.000000	84.344764 
2497.000000	84.344082 
2496.000000	84.343616 
2495.000000	84.343137 
2494.000000	84.342431 
2493.000000	84.341527 
2492.000000	84.340709 
2491.000000	84.340210 
2490.000000	84.339979 
2489.000000	84.339772 
2488.000000	84.339428 
2487.000000	84.338971 
2486.000000	84.338485 
2485.000000	84.338023 
2484.000000	84.337616 
2483.000000	84.337285 
2482.000000	84.337021 
2481.000000	84.336781 
2480.000000	84.336513 
2479.000000	84.336191 
2478.000000	84.335837 
2477.000000	84.335532 
2476.000000	84.335356 
2475.000000	84.335276 
2474.000000	84.335155 
2473.000000	84.334886 
2472.000000	84.334504 
2471.000000	84.334123 
2470.000000	84.333785 
2469.000000	84.333428 
2468.000000	84.333003 
2467.000000	84.332544 
2466.000000	84.332120 
2465.000000	84.331747 
2464.000000	84.331375 
2463.000000	84.330943 
2462.000000	84.330438 
2461.000000	84.329909 
2460.000000	84.329416 
2459.000000	84.328965 
2458.000000	84.328534 
2457.000000	84.328101 
2456.000000	84.327647 
2455.000000	84.327154 
2454.000000	84.326622 
2453.000000	84.326069 
2452.000000	84.325517 
2451.000000	84.324973 
2450.000000	84.324436 
2449.000000	84.323898 
2448.000000	84.323351 
2447.000000	84.322791 
2446.000000	84.322221 
2445.000000	84.321642 
2444.000000	84.321052 
2443.000000	84.320446 
2442.000000	84.319821 
2441.000000	84.319177 
2440.000000	84.318518 
2439.000000	84.317842 
2438.000000	84.317153 
2437.000000	84.316465 
2436.000000	84.315800 
2435.000000	84.315163 
2434.000000	84.314520 
2433.000000	84.313825 
2432.000000	84.313075 
2431.000000	84.312298 
2430.000000	84.311532 
2429.000000	84.310814 
2428.000000	84.310157 
2427.000000	84.309510 
2426.000000	84.308784 
2425.000000	84.307954 
2424.000000	84.307128 
2423.000000	84.306457 
2422.000000	84.305983 
2421.000000	84.305561 
2420.000000	84.304924 
2419.000000	84.303856 
2418.000000	84.302418 
2417.000000	84.301068 
2416.000000	84.300339 
2415.000000	84.300304 
2414.000000	84.300517 
2413.000000	84.300539 
2412.000000	84.300319 
2411.000000	84.300001 
2410.000000	84.299690 
2409.000000	84.299517 
2408.000000	84.299677 
2407.000000	84.300147 
2406.000000	84.300543 
2405.000000	84.300428 
2404.000000	84.299668 
2403.000000	84.298472 
2402.000000	84.297267 
2401.000000	84.296507 
2400.000000	84.296446 
2399.000000	84.296907 
2398.000000	84.297428 
2397.000000	84.297725 
2396.000000	84.297919 
2395.000000	84.298306 
2394.000000	84.299095 
2393.000000	84.300230 
2392.000000	84.301286 
2391.000000	84.301842 
2390.000000	84.301881 
2389.000000	84.301853 
2388.000000	84.302128 
2387.000000	84.302510 
2386.000000	84.302637 
2385.000000	84.302457 
2384.000000	84.302197 
2383.000000	84.302041 
2382.000000	84.302099 
2381.000000	84.302559 
2380.000000	84.303557 
2379.000000	84.304890 
2378.000000	84.306095 
2377.000000	84.306896 
2376.000000	84.307411 
2375.000000	84.307889 
2374.000000	84.308469 
2373.000000	84.309137 
2372.000000	84.309764 
2371.000000	84.310141 
2370.000000	84.310197 
2369.000000	84.310193 
2368.000000	84.310504 
2367.000000	84.311133 
2366.000000	84.311711 
2365.000000	84.311949 
2364.000000	84.311849 
2363.000000	84.311377 
2362.000000	84.310627 
2361.000000	84.310184 
2360.000000	84.310455 
2359.000000	84.311172 
2358.000000	84.311769 
2357.000000	84.312019 
2356.000000	84.312269 
2355.000000	84.312567 
2354.000000	84.313010 
2353.000000	84.313529 
2352.000000	84.313696 
2351.000000	84.312994 
2350.000000	84.311109 
2349.000000	84.308420 
2348.000000	84.305733 
2347.000000	84.304086 
2346.000000	84.303939 
2345.000000	84.304748 
2344.000000	84.305538 
2343.000000	84.305642 
2342.000000	84.305280 
2341.000000	84.304743 
2340.000000	84.304162 
2339.000000	84.303610 
2338.000000	84.303038 
2337.000000	84.302492 
2336.000000	84.301931 
2335.000000	84.301475 
2334.000000	84.301147 
2333.000000	84.301040 
2332.000000	84.300906 
2331.000000	84.300712 
2330.000000	84.300182 
2329.000000	84.299461 
2328.000000	84.298557 
2327.000000	84.297803 
2326.000000	84.297378 
2325.000000	84.297220 
2324.000000	84.297166 
2323.000000	84.297078 
2322.000000	84.297015 
2321.000000	84.296979 
2320.000000	84.296857 
2319.000000	84.296684 
2318.000000	84.296426 
2317.000000	84.296191 
2316.000000	84.295874 
2315.000000	84.295635 
2314.000000	84.295464 
2313.000000	84.295452 
2312.000000	84.295412 
2311.000000	84.295344 
2310.000000	84.295206 
2309.000000	84.295123 
2308.000000	84.295097 
2307.000000	84.295254 
2306.000000	84.295577 
2305.000000	84.296093 
2304.000000	84.296413 
2303.000000	84.296391 
2302.000000	84.296072 
2301.000000	84.295738 
2300.000000	84.295189 
2299.000000	84.294709 
2298.000000	84.294238 
2297.000000	84.293833 
2296.000000	84.293294 
2295.000000	84.292841 
2294.000000	84.292677 
2293.000000	84.292834 
2292.000000	84.292925 
2291.000000	84.292608 
2290.000000	84.291960 
2289.000000	84.291354 
2288.000000	84.291014 
2287.000000	84.290777 
2286.000000	84.290405 
2285.000000	84.289846 
2284.000000	84.289234 
2283.000000	84.288645 
2282.000000	84.288067 
2281.000000	84.287473 
2280.000000	84.286898 
2279.000000	84.286392 
2278.000000	84.285951 
2277.000000	84.285529 
2276.000000	84.285087 
2275.000000	84.284628 
2274.000000	84.284168 
2273.000000	84.283715 
2272.000000	84.283272 
2271.000000	84.282844 
2270.000000	84.282431 
2269.000000	84.282032 
2268.000000	84.281646 
2267.000000	84.281275 
2266.000000	84.280919 
2265.000000	84.280580 
2264.000000	84.280251 
2263.000000	84.279925 
2262.000000	84.279599 
2261.000000	84.279275 
2260.000000	84.278960 
2259.000000	84.278660 
2258.000000	84.278376 
2257.000000	84.278106 
2256.000000	84.277846 
2255.000000	84.277596 
2254.000000	84.277360 
2253.000000	84.277145 
2252.000000	84.276953 
2251.000000	84.276786 
2250.000000	84.276645 
2249.000000	84.276527 
2248.000000	84.276415 
2247.000000	84.276285 
2246.000000	84.276153 
2245.000000	84.276083 
2244.000000	84.276113 
2243.000000	84.276221 
2242.000000	84.276349 
2241.000000	84.276468 
2240.000000	84.276587 
2239.000000	84.276733 
2238.000000	84.276930 
2237.000000	84.277170 
2236.000000	84.277379 
2235.000000	84.277445 
2234.000000	84.277352 
2233.000000	84.277269 
2232.000000	84.277417 
2231.000000	84.277859 
2230.000000	84.278465 
2229.000000	84.279021 
2228.000000	84.279371 
2227.000000	84.279456 
2226.000000	84.279311 
2225.000000	84.279034 
2224.000000	84.278683 
2223.000000	84.278252 
2222.000000	84.277776 
2221.000000	84.277366 
2220.000000	84.277081 
2219.000000	84.276883 
2218.000000	84.276818 
2217.000000	84.277095 
2216.000000	84.277785 
2215.000000	84.278589 
2214.000000	84.279111 
2213.000000	84.279285 
2212.000000	84.279347 
2211.000000	84.279454 
2210.000000	84.279519 
2209.000000	84.279413 
2208.000000	84.279128 
2207.000000	84.278715 
2206.000000	84.278256 
2205.000000	84.277966 
2204.000000	84.278103 
2203.000000	84.278718 
2202.000000	84.279530 
2201.000000	84.280056 
2200.000000	84.279994 
2199.000000	84.279368 
2198.000000	84.278496 
2197.000000	84.277796 
2196.000000	84.277495 
2195.000000	84.277497 
2194.000000	84.277475 
2193.000000	84.277169 
2192.000000	84.276602 
2191.000000	84.275988 
2190.000000	84.275531 
2189.000000	84.275307 
2188.000000	84.275253 
2187.000000	84.275160 
2186.000000	84.274826 
2185.000000	84.274314 
2184.000000	84.273942 
2183.000000	84.273913 
2182.000000	84.274059 
2181.000000	84.274047 
2180.000000	84.273801 
2179.000000	84.273532 
2178.000000	84.273398 
2177.000000	84.273318 
2176.000000	84.273162 
2175.000000	84.272931 
2174.000000	84.272689 
2173.000000	84.272426 
2172.000000	84.272101 
2171.000000	84.271756 
2170.000000	84.271501 
2169.000000	84.271403 
2168.000000	84.271423 
2167.000000	84.271438 
2166.000000	84.271298 
2165.000000	84.270946 
2164.000000	84.270483 
2163.000000	84.270108 
2162.000000	84.269897 
2161.000000	84.269703 
2160.000000	84.269342 
2159.000000	84.268809 
2158.000000	84.268220 
2157.000000	84.267648 
2156.000000	84.267104 
2155.000000	84.266592 
2154.000000	84.266123 
2153.000000	84.265670 
2152.000000	84.265190 
2151.000000	84.264687 
2150.000000	84.264205 
2149.000000	84.263765 
2148.000000	84.263348 
2147.000000	84.262929 
2146.000000	84.262502 
2145.000000	84.262066 
2144.000000	84.261618 
2143.000000	84.261166 
2142.000000	84.260718 
2141.000000	84.260275 
2140.000000	84.259839 
2139.000000	84.259407 
2138.000000	84.258979 
2137.000000	84.258558 
2136.000000	84.258146 
2135.000000	84.257746 
2134.000000	84.257355 
2133.000000	84.256968 
2132.000000	84.256581 
2131.000000	84.256195 
2130.000000	84.255813 
2129.000000	84.255441 
2128.000000	84.255083 
2127.000000	84.254735 
2126.000000	84.254398 
2125.000000	84.254078 
2124.000000	84.253782 
2123.000000	84.253518 
2122.000000	84.253289 
2121.000000	84.253097 
2120.000000	84.252936 
2119.000000	84.252799 
2118.000000	84.252684 
2117.000000	84.252592 
2116.000000	84.252530 
2115.000000	84.252500 
2114.000000	84.252500 
2113.000000	84.252520 
2112.000000	84.252554 
2111.000000	84.252596 
2110.000000	84.252648 
2109.000000	84.252712 
2108.000000	84.252793 
2107.000000	84.252890 
2106.000000	84.252993 
2105.000000	84.253094 
2104.000000	84.253188 
2103.000000	84.253285 
2102.000000	84.253398 
2101.000000	84.253536 
2100.000000	84.253695 
2099.000000	84.253861 
2098.000000	84.254024 
2097.000000	84.254178 
2096.000000	84.254327 
2095.000000	84.254477 
2094.000000	84.254632 
2093.000000	84.254793 
2092.000000	84.254958 
2091.000000	84.255122 
2090.000000	84.255282 
2089.000000	84.255440 
2088.000000	84.255598 
2087.000000	84.255760 
2086.000000	84.255925 
2085.000000	84.256092 
2084.000000	84.256261 
2083.000000	84.256428 
2082.000000	84.256584 
2081.000000	84.256721 
2080.000000	84.256830 
2079.000000	84.256911 
2078.000000	84.256965 
2077.000000	84.256995 
2076.000000	84.257006 
2075.000000	84.257001 
2074.000000	84.256980 
2073.000000	84.256939 
2072.000000	84.256872 
2071.000000	84.256779 
2070.000000	84.256664 
2069.000000	84.256530 
2068.000000	84.256377 
2067.000000	84.256207 
2066.000000	84.256021 
2065.000000	84.255809 
2064.000000	84.255563 
2063.000000	84.255292 
2062.000000	84.255028 
2061.000000	84.254787 
2060.000000	84.254536 
2059.000000	84.254227 
2058.000000	84.253836 
2057.000000	84.253391 
2056.000000	84.252932 
2055.000000	84.252482 
2054.000000	84.252053 
2053.000000	84.251643 
2052.000000	84.251226 
2051.000000	84.250753 
2050.000000	84.250183 
2049.000000	84.249537 
2048.000000	84.248869 
2047.000000	84.248220 
2046.000000	84.247581 
2045.000000	84.246924 
2044.000000	84.246239 
2043.000000	84.245527 
2042.000000	84.244787 
2041.000000	84.244012 
2040.000000	84.243203 
2039.000000	84.242378 
2038.000000	84.241558 
2037.000000	84.240748 
2036.000000	84.239931 
2035.000000	84.239089 
2034.000000	84.238219 
2033.000000	84.237339 
2032.000000	84.236467 
2031.000000	84.235624 
2030.000000	84.234818 
2029.000000	84.234024 
2028.000000	84.233173 
2027.000000	84.232209 
2026.000000	84.231151 
2025.000000	84.230113 
2024.000000	84.229207 
2023.000000	84.228447 
2022.000000	84.227747 
2021.000000	84.227008 
2020.000000	84.226232 
2019.000000	84.225527 
2018.000000	84.224953 
2017.000000	84.224387 
2016.000000	84.223629 
2015.000000	84.222624 
2014.000000	84.221525 
2013.000000	84.220535 
2012.000000	84.219715 
2011.000000	84.219016 
2010.000000	84.218365 
2009.000000	84.217689 
2008.000000	84.216924 
2007.000000	84.216075 
2006.000000	84.215237 
2005.000000	84.214494 
2004.000000	84.213821 
2003.000000	84.213157 
2002.000000	84.212558 
2001.000000	84.212120 
2000.000000	84.211782 
1999.000000	84.211357 
1998.000000	84.210769 
1997.000000	84.210169 
1996.000000	84.209738 
1995.000000	84.209469 
1994.000000	84.209213 
1993.000000	84.208863 
1992.000000	84.208443 
1991.000000	84.208027 
1990.000000	84.207646 
1989.000000	84.207270 
1988.000000	84.206861 
1987.000000	84.206414 
1986.000000	84.205949 
1985.000000	84.205482 
1984.000000	84.205021 
1983.000000	84.204563 
1982.000000	84.204110 
1981.000000	84.203666 
1980.000000	84.203236 
1979.000000	84.202820 
1978.000000	84.202414 
1977.000000	84.202007 
1976.000000	84.201587 
1975.000000	84.201147 
1974.000000	84.200691 
1973.000000	84.200230 
1972.000000	84.199773 
1971.000000	84.199319 
1970.000000	84.198861 
1969.000000	84.198387 
1968.000000	84.197891 
1967.000000	84.197375 
1966.000000	84.196841 
1965.000000	84.196294 
1964.000000	84.195735 
1963.000000	84.195161 
1962.000000	84.194570 
1961.000000	84.193963 
1960.000000	84.193343 
1959.000000	84.192715 
1958.000000	84.192083 
1957.000000	84.191447 
1956.000000	84.190806 
1955.000000	84.190157 
1954.000000	84.189502 
1953.000000	84.188847 
1952.000000	84.188203 
1951.000000	84.187580 
1950.000000	84.186982 
1949.000000	84.186402 
1948.000000	84.185831 
1947.000000	84.185259 
1946.000000	84.184683 
1945.000000	84.184107 
1944.000000	84.183539 
1943.000000	84.182985 
1942.000000	84.182448 
1941.000000	84.181934 
1940.000000	84.181443 
1939.000000	84.180962 
1938.000000	84.180457 
1937.000000	84.179883 
1936.000000	84.179218 
1935.000000	84.178520 
1934.000000	84.177901 
1933.000000	84.177438 
1932.000000	84.177083 
1931.000000	84.176719 
1930.000000	84.176297 
1929.000000	84.175846 
1928.000000	84.175392 
1927.000000	84.174880 
1926.000000	84.174300 
1925.000000	84.173750 
1924.000000	84.173368 
1923.000000	84.173230 
1922.000000	84.173224 
1921.000000	84.173171 
1920.000000	84.172976 
1919.000000	84.172644 
1918.000000	84.172326 
1917.000000	84.172250 
1916.000000	84.172583 
1915.000000	84.173349 
1914.000000	84.174332 
1913.000000	84.175084 
1912.000000	84.175196 
1911.000000	84.174742 
1910.000000	84.174248 
1909.000000	84.174069 
1908.000000	84.173945 
1907.000000	84.173197 
1906.000000	84.171686 
1905.000000	84.170016 
1904.000000	84.169016 
1903.000000	84.169145 
1902.000000	84.170169 
1901.000000	84.171453 
1900.000000	84.172481 
1899.000000	84.173137 
1898.000000	84.173765 
1897.000000	84.174648 
1896.000000	84.175547 
1895.000000	84.176050 
1894.000000	84.176237 
1893.000000	84.176759 
1892.000000	84.178058 
1891.000000	84.179848 
1890.000000	84.181471 
1889.000000	84.182494 
1888.000000	84.182843 
1887.000000	84.182689 
1886.000000	84.182340 
1885.000000	84.182189 
1884.000000	84.182443 
1883.000000	84.182920 
1882.000000	84.183429 
1881.000000	84.184369 
1880.000000	84.186489 
1879.000000	84.189713 
1878.000000	84.192819 
1877.000000	84.194554 
1876.000000	84.194790 
1875.000000	84.194601 
1874.000000	84.195156 
1873.000000	84.196602 
1872.000000	84.198210 
1871.000000	84.199328 
1870.000000	84.200092 
1869.000000	84.201188 
1868.000000	84.202735 
1867.000000	84.204152 
1866.000000	84.205170 
1865.000000	84.205980 
1864.000000	84.206872 
1863.000000	84.208198 
1862.000000	84.210294 
1861.000000	84.213215 
1860.000000	84.216555 
1859.000000	84.219622 
1858.000000	84.221895 
1857.000000	84.223299 
1856.000000	84.224197 
1855.000000	84.225280 
1854.000000	84.227179 
1853.000000	84.229875 
1852.000000	84.232882 
1851.000000	84.235460 
1850.000000	84.237366 
1849.000000	84.239228 
1848.000000	84.241817 
1847.000000	84.245249 
1846.000000	84.248718 
1845.000000	84.251209 
1844.000000	84.252568 
1843.000000	84.253712 
1842.000000	84.255422 
1841.000000	84.257592 
1840.000000	84.259539 
1839.000000	84.260661 
1838.000000	84.261352 
1837.000000	84.262408 
1836.000000	84.264018 
1835.000000	84.266066 
1834.000000	84.268772 
1833.000000	84.272458 
1832.000000	84.276571 
1831.000000	84.279235 
1830.000000	84.279245 
1829.000000	84.277765 
1828.000000	84.277113 
1827.000000	84.278225 
1826.000000	84.280165 
1825.000000	84.281900 
1824.000000	84.283244 
1823.000000	84.284590 
1822.000000	84.286422 
1821.000000	84.288973 
1820.000000	84.292054 
1819.000000	84.294967 
1818.000000	84.297041 
1817.000000	84.297878 
1816.000000	84.297835 
1815.000000	84.298214 
1814.000000	84.300342 
1813.000000	84.304923 
1812.000000	84.310981 
1811.000000	84.315994 
1810.000000	84.317851 
1809.000000	84.316849 
1808.000000	84.315698 
1807.000000	84.316761 
1806.000000	84.320297 
1805.000000	84.325265 
1804.000000	84.330829 
1803.000000	84.336801 
1802.000000	84.342582 
1801.000000	84.347351 
1800.000000	84.350164 
1799.000000	84.351163 
1798.000000	84.352255 
1797.000000	84.355169 
1796.000000	84.359784 
1795.000000	84.364391 
1794.000000	84.367764 
1793.000000	84.371539 
1792.000000	84.378738 
1791.000000	84.389016 
1790.000000	84.398735 
1789.000000	84.405953 
1788.000000	84.411455 
1787.000000	84.416301 
1786.000000	84.420853 
1785.000000	84.425216 
1784.000000	84.429648 
1783.000000	84.434606 
1782.000000	84.440195 
1781.000000	84.447260 
1780.000000	84.455650 
1779.000000	84.463581 
1778.000000	84.470093 
1777.000000	84.476016 
1776.000000	84.482776 
1775.000000	84.489328 
1774.000000	84.492572 
1773.000000	84.492115 
1772.000000	84.493100 
1771.000000	84.500399 
1770.000000	84.513787 
1769.000000	84.529836 
1768.000000	84.544508 
1767.000000	84.555083 
1766.000000	84.561376 
1765.000000	84.565550 
1764.000000	84.569218 
1763.000000	84.573230 
1762.000000	84.579094 
1761.000000	84.587774 
1760.000000	84.597141 
1759.000000	84.604944 
1758.000000	84.610655 
1757.000000	84.615305 
1756.000000	84.620226 
1755.000000	84.624961 
1754.000000	84.629309 
1753.000000	84.633660 
1752.000000	84.638641 
1751.000000	84.645748 
1750.000000	84.656016 
1749.000000	84.666946 
1748.000000	84.675638 
1747.000000	84.680930 
1746.000000	84.683556 
1745.000000	84.687281 
1744.000000	84.694603 
1743.000000	84.703557 
1742.000000	84.708942 
1741.000000	84.706871 
1740.000000	84.698534 
1739.000000	84.690281 
1738.000000	84.687015 
1737.000000	84.688387 
1736.000000	84.689949 
1735.000000	84.685008 
1734.000000	84.674189 
1733.000000	84.665253 
1732.000000	84.660773 
1731.000000	84.660685 
1730.000000	84.663807 
1729.000000	84.665556 
1728.000000	84.662928 
1727.000000	84.656958 
1726.000000	84.649594 
1725.000000	84.642142 
1724.000000	84.634894 
1723.000000	84.629335 
1722.000000	84.626609 
1721.000000	84.624882 
1720.000000	84.620345 
1719.000000	84.609748 
1718.000000	84.596744 
1717.000000	84.589716 
1716.000000	84.589235 
1715.000000	84.588615 
1714.000000	84.584604 
1713.000000	84.579262 
1712.000000	84.576491 
1711.000000	84.578052 
1710.000000	84.581246 
1709.000000	84.582308 
1708.000000	84.581246 
1707.000000	84.581030 
1706.000000	84.585201 
1705.000000	84.595011 
1704.000000	84.609329 
1703.000000	84.626202 
1702.000000	84.640009 
1701.000000	84.643623 
1700.000000	84.642503 
1699.000000	84.648141 
1698.000000	84.660980 
1697.000000	84.678461 
1696.000000	84.696357 
1695.000000	84.708776 
1694.000000	84.714703 
1693.000000	84.718205 
1692.000000	84.724898 
1691.000000	84.738536 
1690.000000	84.759643 
1689.000000	84.785878 
1688.000000	84.812671 
1687.000000	84.834580 
1686.000000	84.847864 
1685.000000	84.855598 
1684.000000	84.871058 
1683.000000	84.896459 
1682.000000	84.921663 
1681.000000	84.944833 
1680.000000	84.966258 
1679.000000	84.983686 
1678.000000	84.996429 
1677.000000	85.007399 
1676.000000	85.019566 
1675.000000	85.035335 
1674.000000	85.054430 
1673.000000	85.073892 
1672.000000	85.089524 
1671.000000	85.098427 
1670.000000	85.103717 
1669.000000	85.114692 
1668.000000	85.135876 
1667.000000	85.161472 
1666.000000	85.185315 
1665.000000	85.205822 
1664.000000	85.223039 
1663.000000	85.237394 
1662.000000	85.248814 
1661.000000	85.258540 
1660.000000	85.268278 
1659.000000	85.277203 
1658.000000	85.284676 
1657.000000	85.292673 
1656.000000	85.302021 
1655.000000	85.305999 
1654.000000	85.300747 
1653.000000	85.298394 
1652.000000	85.305089 
1651.000000	85.308850 
1650.000000	85.304535 
1649.000000	85.299126 
1648.000000	85.298999 
1647.000000	85.303085 
1646.000000	85.307170 
1645.000000	85.308252 
1644.000000	85.307249 
1643.000000	85.305466 
1642.000000	85.301940 
1641.000000	85.295820 
1640.000000	85.289325 
1639.000000	85.285769 
1638.000000	85.286036 
1637.000000	85.287366 
1636.000000	85.288841 
1635.000000	85.291131 
1634.000000	85.294212 
1633.000000	85.296019 
1632.000000	85.296074 
1631.000000	85.296932 
1630.000000	85.299136 
1629.000000	85.302729 
1628.000000	85.309103 
1627.000000	85.319340 
1626.000000	85.331038 
1625.000000	85.340034 
1624.000000	85.343961 
1623.000000	85.344846 
1622.000000	85.346413 
1621.000000	85.350762 
1620.000000	85.358611 
1619.000000	85.369279 
1618.000000	85.380891 
1617.000000	85.392527 
1616.000000	85.405260 
1615.000000	85.417380 
1614.000000	85.425597 
1613.000000	85.429383 
1612.000000	85.430351 
1611.000000	85.431073 
1610.000000	85.434187 
1609.000000	85.441137 
1608.000000	85.451091 
1607.000000	85.461994 
1606.000000	85.471683 
1605.000000	85.479619 
1604.000000	85.486080 
1603.000000	85.490811 
1602.000000	85.494317 
1601.000000	85.497372 
1600.000000	85.500760 
1599.000000	85.505305 
1598.000000	85.511339 
1597.000000	85.517443 
1596.000000	85.520227 
1595.000000	85.517061 
1594.000000	85.508844 
1593.000000	85.499392 
1592.000000	85.492093 
1591.000000	85.487791 
1590.000000	85.485152 
1589.000000	85.482286 
1588.000000	85.478225 
1587.000000	85.473673 
1586.000000	85.469532 
1585.000000	85.464819 
1584.000000	85.457817 
1583.000000	85.447270 
1582.000000	85.434875 
1581.000000	85.424968 
1580.000000	85.420158 
1579.000000	85.418267 
1578.000000	85.413274 
1577.000000	85.398791 
1576.000000	85.375195 
1575.000000	85.351937 
1574.000000	85.335333 
1573.000000	85.324295 
1572.000000	85.314642 
1571.000000	85.301978 
1570.000000	85.286899 
1569.000000	85.274422 
1568.000000	85.266003 
1567.000000	85.257855 
1566.000000	85.247263 
1565.000000	85.235371 
1564.000000	85.226520 
1563.000000	85.223656 
1562.000000	85.225250 
1561.000000	85.222165 
1560.000000	85.204620 
1559.000000	85.183235 
1558.000000	85.170638 
1557.000000	85.163993 
1556.000000	85.161477 
1555.000000	85.161306 
1554.000000	85.161030 
1553.000000	85.157285 
1552.000000	85.150279 
1551.000000	85.142798 
1550.000000	85.138473 
1549.000000	85.136657 
1548.000000	85.134938 
1547.000000	85.132727 
1546.000000	85.131805 
1545.000000	85.136841 
1544.000000	85.151282 
1543.000000	85.173140 
1542.000000	85.197277 
1541.000000	85.216429 
1540.000000	85.220041 
1539.000000	85.203852 
1538.000000	85.176841 
1537.000000	85.146247 
1536.000000	85.112006 
1535.000000	85.072345 
1534.000000	85.029265 
1533.000000	84.993235 
1532.000000	84.967453 
1531.000000	84.945044 
1530.000000	84.922458 
1529.000000	84.901650 
1528.000000	84.885402 
1527.000000	84.873041 
1526.000000	84.861784 
1525.000000	84.851517 
1524.000000	84.843633 
1523.000000	84.837255 
1522.000000	84.831349 
1521.000000	84.825847 
1520.000000	84.817461 
1519.000000	84.803288 
1518.000000	84.788147 
1517.000000	84.780110 
1516.000000	84.780161 
1515.000000	84.780944 
1514.000000	84.776800 
1513.000000	84.768155 
1512.000000	84.757975 
1511.000000	84.748971 
1510.000000	84.741765 
1509.000000	84.735448 
1508.000000	84.732737 
1507.000000	84.738667 
1506.000000	84.743549 
1505.000000	84.736636 
1504.000000	84.722008 
1503.000000	84.705670 
1502.000000	84.694077 
1501.000000	84.689318 
1500.000000	84.689459 
1499.000000	84.690028 
1498.000000	84.687423 
1497.000000	84.682966 
1496.000000	84.681511 
1495.000000	84.683696 
1494.000000	84.684183 
1493.000000	84.679896 
1492.000000	84.673600 
1491.000000	84.672929 
1490.000000	84.684141 
1489.000000	84.701745 
1488.000000	84.713457 
1487.000000	84.714823 
1486.000000	84.708958 
1485.000000	84.700355 
1484.000000	84.694493 
1483.000000	84.695829 
1482.000000	84.705815 
1481.000000	84.720187 
1480.000000	84.731940 
1479.000000	84.739343 
1478.000000	84.747648 
1477.000000	84.763236 
1476.000000	84.786624 
1475.000000	84.812771 
1474.000000	84.838504 
1473.000000	84.868248 
1472.000000	84.903108 
1471.000000	84.934282 
1470.000000	84.956562 
1469.000000	84.973481 
1468.000000	84.990133 
1467.000000	85.008435 
1466.000000	85.026330 
1465.000000	85.040366 
1464.000000	85.047467 
1463.000000	85.046424 
1462.000000	85.039456 
1461.000000	85.030570 
1460.000000	85.024580 
1459.000000	85.024088 
1458.000000	85.026131 
1457.000000	85.020768 
1456.000000	84.999904 
1455.000000	84.968437 
1454.000000	84.937536 
1453.000000	84.914190 
1452.000000	84.898656 
1451.000000	84.888501 
1450.000000	84.884744 
1449.000000	84.890614 
1448.000000	84.906260 
1447.000000	84.924287 
1446.000000	84.934333 
1445.000000	84.933528 
1444.000000	84.926048 
1443.000000	84.918199 
1442.000000	84.915334 
1441.000000	84.918592 
1440.000000	84.926133 
1439.000000	84.935779 
1438.000000	84.946414 
1437.000000	84.956484 
1436.000000	84.961544 
1435.000000	84.957294 
1434.000000	84.946892 
1433.000000	84.937438 
1432.000000	84.932399 
1431.000000	84.930893 
1430.000000	84.929682 
1429.000000	84.925307 
1428.000000	84.917214 
1427.000000	84.908418 
1426.000000	84.901543 
1425.000000	84.897078 
1424.000000	84.893127 
1423.000000	84.886825 
1422.000000	84.876551 
1421.000000	84.861391 
1420.000000	84.842282 
1419.000000	84.823789 
1418.000000	84.806830 
1417.000000	84.786037 
1416.000000	84.759557 
1415.000000	84.730013 
1414.000000	84.699639 
1413.000000	84.669329 
1412.000000	84.640256 
1411.000000	84.614437 
1410.000000	84.592139 
1409.000000	84.571294 
1408.000000	84.551726 
1407.000000	84.537533 
1406.000000	84.533264 
1405.000000	84.540254 
1404.000000	84.555890 
1403.000000	84.575165 
1402.000000	84.593870 
1401.000000	84.610775 
1400.000000	84.627128 
1399.000000	84.641213 
1398.000000	84.642730 
1397.000000	84.618446 
1396.000000	84.566808 
1395.000000	84.509715 
1394.000000	84.481378 
1393.000000	84.495703 
1392.000000	84.537643 
1391.000000	84.582174 
1390.000000	84.612281 
1389.000000	84.623036 
1388.000000	84.618215 
1387.000000	84.606091 
1386.000000	84.594154 
1385.000000	84.585779 
1384.000000	84.581366 
1383.000000	84.580601 
1382.000000	84.583797 
1381.000000	84.591471 
1380.000000	84.603323 
1379.000000	84.617692 
1378.000000	84.632492 
1377.000000	84.646977 
1376.000000	84.662334 
1375.000000	84.680224 
1374.000000	84.700580 
1373.000000	84.721724 
1372.000000	84.743215 
1371.000000	84.766977 
1370.000000	84.794546 
1369.000000	84.824180 
1368.000000	84.851276 
1367.000000	84.872494 
1366.000000	84.889025 
1365.000000	84.905337 
1364.000000	84.925506 
1363.000000	84.949907 
1362.000000	84.974255 
1361.000000	84.993223 
1360.000000	85.005230 
1359.000000	85.012764 
1358.000000	85.020075 
1357.000000	85.031028 
1356.000000	85.047058 
1355.000000	85.066030 
1354.000000	85.083646 
1353.000000	85.097088 
1352.000000	85.106412 
1351.000000	85.112418 
1350.000000	85.115834 
1349.000000	85.117233 
1348.000000	85.116197 
1347.000000	85.113134 
1346.000000	85.110087 
1345.000000	85.108466 
1344.000000	85.107955 
1343.000000	85.108285 
1342.000000	85.110477 
1341.000000	85.115162 
1340.000000	85.120728 
1339.000000	85.124620 
1338.000000	85.126444 
1337.000000	85.128171 
1336.000000	85.131160 
1335.000000	85.134545 
1334.000000	85.136755 
1333.000000	85.137562 
1332.000000	85.138597 
1331.000000	85.142551 
1330.000000	85.151256 
1329.000000	85.163291 
1328.000000	85.173845 
1327.000000	85.178477 
1326.000000	85.177505 
1325.000000	85.176028 
1324.000000	85.179704 
1323.000000	85.190140 
1322.000000	85.203360 
1321.000000	85.212845 
1320.000000	85.215211 
1319.000000	85.213368 
1318.000000	85.213537 
1317.000000	85.219091 
1316.000000	85.228375 
1315.000000	85.237775 
1314.000000	85.244680 
1313.000000	85.247566 
1312.000000	85.245810 
1311.000000	85.241003 
1310.000000	85.236994 
1309.000000	85.236668 
1308.000000	85.238999 
1307.000000	85.240401 
1306.000000	85.238670 
1305.000000	85.234744 
1304.000000	85.231490 
1303.000000	85.231671 
1302.000000	85.236069 
1301.000000	85.242248 
1300.000000	85.245764 
1299.000000	85.244015 
1298.000000	85.238681 
1297.000000	85.233677 
1296.000000	85.231385 
1295.000000	85.231857 
1294.000000	85.234185 
1293.000000	85.236472 
1292.000000	85.235511 
1291.000000	85.229365 
1290.000000	85.220467 
1289.000000	85.213634 
1288.000000	85.210124 
1287.000000	85.205996 
1286.000000	85.197705 
1285.000000	85.186838 
1284.000000	85.177813 
1283.000000	85.172713 
1282.000000	85.169529 
1281.000000	85.164797 
1280.000000	85.156582 
1279.000000	85.144702 
1278.000000	85.129891 
1277.000000	85.113948 
1276.000000	85.099230 
1275.000000	85.086848 
1274.000000	85.075760 
1273.000000	85.064189 
1272.000000	85.051586 
1271.000000	85.038665 
1270.000000	85.025824 
1269.000000	85.012536 
1268.000000	84.998543 
1267.000000	84.984767 
1266.000000	84.972240 
1265.000000	84.960286 
1264.000000	84.946290 
1263.000000	84.927489 
1262.000000	84.903316 
1261.000000	84.876220 
1260.000000	84.849724 
1259.000000	84.824933 
1258.000000	84.799379 
1257.000000	84.770582 
1256.000000	84.740389 
1255.000000	84.713823 
1254.000000	84.693114 
1253.000000	84.675139 
1252.000000	84.656408 
1251.000000	84.638776 
1250.000000	84.627641 
1249.000000	84.625521 
1248.000000	84.629899 
1247.000000	84.635946 
1246.000000	84.637982 
1245.000000	84.629133 
1244.000000	84.605401 
1243.000000	84.573784 
1242.000000	84.552234 
1241.000000	84.554955 
1240.000000	84.577975 
1239.000000	84.600883 
1238.000000	84.605551 
1237.000000	84.590429 
1236.000000	84.565640 
1235.000000	84.539785 
1234.000000	84.514787 
1233.000000	84.490807 
1232.000000	84.469713 
1231.000000	84.452197 
1230.000000	84.435703 
1229.000000	84.418043 
1228.000000	84.401207 
1227.000000	84.389431 
1226.000000	84.384526 
1225.000000	84.384563 
1224.000000	84.386133 
1223.000000	84.386424 
1222.000000	84.384075 
1221.000000	84.379716 
1220.000000	84.375393 
1219.000000	84.372321 
1218.000000	84.369187 
1217.000000	84.363337 
1216.000000	84.353430 
1215.000000	84.340584 
1214.000000	84.327422 
1213.000000	84.315937 
1212.000000	84.305262 
1211.000000	84.291587 
1210.000000	84.271907 
1209.000000	84.248099 
1208.000000	84.225194 
1207.000000	84.204509 
1206.000000	84.180984 
1205.000000	84.149478 
1204.000000	84.111499 
1203.000000	84.073150 
1202.000000	84.037903 
1201.000000	84.004462 
1200.000000	83.970861 
1199.000000	83.937122 
1198.000000	83.903878 
1197.000000	83.871004 
1196.000000	83.837828 
1195.000000	83.803386 
1194.000000	83.766672 
1193.000000	83.727851 
1192.000000	83.688955 
1191.000000	83.651370 
1190.000000	83.613101 
1189.000000	83.571188 
1188.000000	83.526521 
1187.000000	83.483396 
1186.000000	83.444133 
1185.000000	83.406819 
1184.000000	83.368503 
1183.000000	83.327696 
1182.000000	83.283343 
1181.000000	83.234399 
1180.000000	83.181647 
1179.000000	83.127743 
1178.000000	83.074225 
1177.000000	83.019792 
1176.000000	82.961972 
1175.000000	82.899240 
1174.000000	82.832098 
1173.000000	82.763932 
1172.000000	82.699549 
1171.000000	82.639528 
1170.000000	82.576598 
1169.000000	82.502182 
1168.000000	82.417975 
1167.000000	82.337709 
1166.000000	82.275935 
1165.000000	82.237794 
1164.000000	82.219637 
1163.000000	82.215127 
1162.000000	82.219612 
1161.000000	82.232180 
1160.000000	82.254504 
1159.000000	82.284485 
1158.000000	82.310662 
1157.000000	82.317306 
1156.000000	82.296564 
1155.000000	82.252957 
1154.000000	82.196222 
1153.000000	82.133410 
1152.000000	82.068762 
1151.000000	82.005803 
1150.000000	81.945267 
1149.000000	81.884147 
1148.000000	81.820816 
1147.000000	81.759107 
1146.000000	81.703872 
1145.000000	81.653843 
1144.000000	81.602005 
1143.000000	81.542681 
1142.000000	81.476585 
1141.000000	81.409383 
1140.000000	81.346398 
1139.000000	81.288353 
1138.000000	81.232077 
1137.000000	81.175519 
1136.000000	81.120165 
1135.000000	81.066441 
1134.000000	81.009263 
1133.000000	80.942485 
1132.000000	80.867074 
1131.000000	80.790761 
1130.000000	80.719512 
1129.000000	80.652934 
1128.000000	80.587541 
1127.000000	80.519965 
1126.000000	80.447219 
1125.000000	80.368606 
1124.000000	80.287602 
1123.000000	80.207861 
1122.000000	80.127823 
1121.000000	80.043287 
1120.000000	79.953849 
1119.000000	79.861658 
1118.000000	79.766003 
1117.000000	79.665904 
1116.000000	79.566202 
1115.000000	79.472902 
1114.000000	79.382972 
1113.000000	79.287056 
1112.000000	79.182101 
1111.000000	79.072958 
1110.000000	78.961289 
1109.000000	78.843160 
1108.000000	78.719903 
1107.000000	78.600051 
1106.000000	78.487611 
1105.000000	78.378323 
1104.000000	78.268864 
1103.000000	78.160318 
1102.000000	78.051085 
1101.000000	77.935332 
1100.000000	77.811847 
1099.000000	77.686426 
1098.000000	77.563603 
1097.000000	77.443452 
1096.000000	77.326938 
1095.000000	77.215966 
1094.000000	77.105251 
1093.000000	76.982722 
1092.000000	76.842527 
1091.000000	76.692419 
1090.000000	76.545391 
1089.000000	76.409086 
1088.000000	76.285249 
1087.000000	76.171930 
1086.000000	76.062262 
1085.000000	75.948153 
1084.000000	75.829270 
1083.000000	75.712280 
1082.000000	75.598884 
1081.000000	75.483044 
1080.000000	75.363665 
1079.000000	75.250890 
1078.000000	75.154618 
1077.000000	75.075007 
1076.000000	75.008828 
1075.000000	74.955891 
1074.000000	74.913508 
1073.000000	74.872575 
1072.000000	74.822911 
1071.000000	74.753023 
1070.000000	74.642960 
1069.000000	74.474313 
1068.000000	74.258810 
1067.000000	74.046890 
1066.000000	73.891494 
1065.000000	73.804593 
1064.000000	73.756044 
1063.000000	73.704168 
1062.000000	73.616913 
1061.000000	73.474158 
1060.000000	73.271872 
1059.000000	73.031623 
1058.000000	72.794622 
1057.000000	72.596111 
1056.000000	72.445351 
1055.000000	72.327885 
1054.000000	72.221928 
1053.000000	72.114682 
1052.000000	72.008310 
1051.000000	71.912063 
1050.000000	71.829721 
1049.000000	71.757323 
1048.000000	71.691010 
1047.000000	71.630737 
1046.000000	71.576959 
1045.000000	71.530296 
1044.000000	71.493966 
1043.000000	71.469757 
1042.000000	71.450840 
1041.000000	71.424322 
1040.000000	71.383005 
1039.000000	71.332864 
1038.000000	71.290619 
1037.000000	71.275328 
1036.000000	71.296374 
1035.000000	71.343521 
1034.000000	71.392452 
1033.000000	71.424439 
1032.000000	71.433860 
1031.000000	71.414621 
1030.000000	71.357207 
1029.000000	71.273630 
1028.000000	71.210400 
1027.000000	71.212058 
1026.000000	71.273459 
1025.000000	71.345927 
1024.000000	71.389801 
1023.000000	71.402965 
1022.000000	71.400343 
1021.000000	71.390014 
1020.000000	71.375788 
1019.000000	71.363233 
1018.000000	71.352125 
1017.000000	71.335347 
1016.000000	71.312700 
1015.000000	71.295069 
1014.000000	71.289884 
1013.000000	71.293127 
1012.000000	71.299376 
1011.000000	71.308097 
1010.000000	71.316779 
1009.000000	71.320652 
1008.000000	71.323654 
1007.000000	71.337735 
1006.000000	71.366473 
1005.000000	71.400173 
1004.000000	71.431177 
1003.000000	71.463342 
1002.000000	71.502645 
1001.000000	71.548975 
1000.000000	71.600429 
999.000000	 71.655078 
998.000000	 71.706061 
997.000000	 71.746772 
996.000000	 71.784033 
995.000000	 71.834051 
994.000000	 71.901500 
993.000000	 71.974017 
992.000000	 72.040716 
991.000000	 72.103859 
990.000000	 72.168066 
989.000000	 72.231870 
988.000000	 72.296951 
987.000000	 72.373167 
986.000000	 72.465689 
985.000000	 72.566591 
984.000000	 72.665919 
983.000000	 72.763278 
982.000000	 72.864064 
981.000000	 72.971749 
980.000000	 73.089151 
979.000000	 73.220185 
978.000000	 73.363639 
977.000000	 73.511041 
976.000000	 73.655900 
975.000000	 73.800368 
974.000000	 73.950048 
973.000000	 74.107813 
972.000000	 74.274805 
971.000000	 74.451048 
970.000000	 74.632334 
969.000000	 74.812086 
968.000000	 74.988478 
967.000000	 75.164868 
966.000000	 75.342060 
965.000000	 75.515239 
964.000000	 75.679363 
963.000000	 75.833074 
962.000000	 75.977700 
961.000000	 76.117531 
960.000000	 76.260016 
959.000000	 76.409134 
958.000000	 76.558414 
957.000000	 76.696461 
956.000000	 76.819364 
955.000000	 76.932587 
954.000000	 77.042224 
953.000000	 77.150478 
952.000000	 77.258052 
951.000000	 77.363405 
950.000000	 77.460308 
949.000000	 77.543900 
948.000000	 77.619282 
947.000000	 77.696585 
946.000000	 77.776847 
945.000000	 77.850263 
944.000000	 77.909234 
943.000000	 77.955772 
942.000000	 77.995625 
941.000000	 78.033187 
940.000000	 78.074100 
939.000000	 78.124365 
938.000000	 78.182465 
937.000000	 78.238191 
936.000000	 78.283166 
935.000000	 78.318713 
934.000000	 78.351933 
933.000000	 78.388471 
932.000000	 78.429827 
931.000000	 78.472729 
930.000000	 78.510508 
929.000000	 78.540484 
928.000000	 78.570514 
927.000000	 78.612381 
926.000000	 78.667608 
925.000000	 78.725123 
924.000000	 78.773103 
923.000000	 78.807277 
922.000000	 78.828328 
921.000000	 78.839348 
920.000000	 78.847588 
919.000000	 78.861351 
918.000000	 78.881739 
917.000000	 78.902253 
916.000000	 78.918186 
915.000000	 78.931339 
914.000000	 78.945329 
913.000000	 78.963673 
912.000000	 78.994059 
911.000000	 79.045806 
910.000000	 79.118467 
909.000000	 79.199235 
908.000000	 79.276602 
907.000000	 79.352383 
906.000000	 79.436321 
905.000000	 79.533345 
904.000000	 79.640329 
903.000000	 79.751908 
902.000000	 79.865049 
901.000000	 79.978663 
900.000000	 80.091586 
899.000000	 80.202335 
898.000000	 80.311212 
897.000000	 80.421051 
896.000000	 80.532184 
895.000000	 80.636648 
894.000000	 80.723828 
893.000000	 80.795553 
892.000000	 80.869500 
891.000000	 80.961006 
890.000000	 81.064952 
889.000000	 81.161848 
888.000000	 81.238465 
887.000000	 81.295926 
886.000000	 81.342158 
885.000000	 81.385963 
884.000000	 81.436369 
883.000000	 81.497339 
882.000000	 81.563005 
881.000000	 81.628273 
880.000000	 81.704399 
879.000000	 81.811902 
878.000000	 81.954663 
877.000000	 82.111306 
876.000000	 82.256272 
875.000000	 82.380668 
874.000000	 82.489393 
873.000000	 82.589336 
872.000000	 82.687291 
871.000000	 82.790931 
870.000000	 82.903435 
869.000000	 83.020785 
868.000000	 83.138215 
867.000000	 83.254555 
866.000000	 83.367742 
865.000000	 83.473014 
864.000000	 83.570041 
863.000000	 83.665986 
862.000000	 83.766088 
861.000000	 83.865983 
860.000000	 83.959381 
859.000000	 84.049532 
858.000000	 84.146447 
857.000000	 84.253969 
856.000000	 84.364258 
855.000000	 84.464243 
854.000000	 84.544785 
853.000000	 84.606052 
852.000000	 84.657791 
851.000000	 84.712699 
850.000000	 84.775816 
849.000000	 84.841126 
848.000000	 84.899600 
847.000000	 84.946712 
846.000000	 84.980367 
845.000000	 84.998262 
844.000000	 85.003296 
843.000000	 85.006088 
842.000000	 85.013172 
841.000000	 85.014997 
840.000000	 84.995095 
839.000000	 84.951827 
838.000000	 84.903812 
837.000000	 84.872168 
836.000000	 84.862453 
835.000000	 84.863464 
834.000000	 84.856808 
833.000000	 84.828113 
832.000000	 84.777936 
831.000000	 84.725365 
830.000000	 84.694261 
829.000000	 84.691558 
828.000000	 84.703580 
827.000000	 84.715402 
826.000000	 84.726877 
825.000000	 84.745984 
824.000000	 84.774262 
823.000000	 84.805770 
822.000000	 84.834391 
821.000000	 84.854693 
820.000000	 84.860537 
819.000000	 84.850188 
818.000000	 84.829584 
817.000000	 84.804309 
816.000000	 84.770379 
815.000000	 84.718333 
814.000000	 84.644635 
813.000000	 84.552945 
812.000000	 84.444334 
811.000000	 84.311821 
810.000000	 84.145738 
809.000000	 83.940146 
808.000000	 83.693421 
807.000000	 83.408406 
806.000000	 83.095487 
805.000000	 82.772124 
804.000000	 82.455043 
803.000000	 82.152824 
802.000000	 81.868870 
801.000000	 81.612239 
800.000000	 81.400887 
799.000000	 81.249385 
798.000000	 81.156431 
797.000000	 81.110933 
796.000000	 81.107252 
795.000000	 81.144312 
794.000000	 81.210408 
793.000000	 81.281899 
792.000000	 81.342458 
791.000000	 81.394734 
790.000000	 81.446845 
789.000000	 81.493929 
788.000000	 81.519058 
787.000000	 81.507815 
786.000000	 81.456776 
785.000000	 81.371960 
784.000000	 81.265575 
783.000000	 81.152353 
782.000000	 81.043328 
781.000000	 80.943784 
780.000000	 80.859730 
779.000000	 80.802532 
778.000000	 80.783193 
777.000000	 80.805698 
776.000000	 80.868909 
775.000000	 80.969183 
774.000000	 81.096825 
773.000000	 81.236475 
772.000000	 81.377786 
771.000000	 81.521343 
770.000000	 81.667816 
769.000000	 81.806366 
768.000000	 81.922682 
767.000000	 82.015950 
766.000000	 82.098350 
765.000000	 82.178244 
764.000000	 82.253830 
763.000000	 82.324678 
762.000000	 82.398144 
761.000000	 82.478166 
760.000000	 82.556075 
759.000000	 82.621272 
758.000000	 82.676989 
757.000000	 82.737515 
756.000000	 82.811143 
755.000000	 82.891873 
754.000000	 82.967331 
753.000000	 83.030284 
752.000000	 83.083078 
751.000000	 83.134827 
750.000000	 83.193836 
749.000000	 83.260150 
748.000000	 83.327097 
747.000000	 83.392201 
746.000000	 83.462591 
745.000000	 83.544818 
744.000000	 83.633560 
743.000000	 83.718613 
742.000000	 83.800978 
741.000000	 83.891790 
740.000000	 83.993795 
739.000000	 84.093615 
738.000000	 84.177313 
737.000000	 84.246674 
736.000000	 84.314140 
735.000000	 84.386428 
734.000000	 84.459135 
733.000000	 84.524007 
732.000000	 84.574935 
731.000000	 84.608663 
730.000000	 84.626218 
729.000000	 84.634262 
728.000000	 84.643370 
727.000000	 84.661918 
726.000000	 84.688764 
725.000000	 84.714343 
724.000000	 84.731121 
723.000000	 84.742291 
722.000000	 84.758435 
721.000000	 84.785073 
720.000000	 84.815645 
719.000000	 84.837798 
718.000000	 84.844882 
717.000000	 84.840709 
716.000000	 84.835359 
715.000000	 84.838204 
714.000000	 84.851614 
713.000000	 84.867060 
712.000000	 84.869126 
711.000000	 84.846346 
710.000000	 84.799359 
709.000000	 84.739839 
708.000000	 84.683616 
707.000000	 84.645209 
706.000000	 84.628081 
705.000000	 84.615695 
704.000000	 84.579023 
703.000000	 84.497538 
702.000000	 84.373770 
701.000000	 84.224411 
700.000000	 84.059009 
699.000000	 83.875568 
698.000000	 83.673752 
697.000000	 83.468664 
696.000000	 83.293023 
695.000000	 83.183635 
694.000000	 83.163810 
693.000000	 83.228643 
692.000000	 83.343185 
691.000000	 83.466857 
690.000000	 83.582122 
689.000000	 83.694841 
688.000000	 83.807902 
687.000000	 83.906386 
686.000000	 83.978720 
685.000000	 84.036118 
684.000000	 84.097045 
683.000000	 84.164665 
682.000000	 84.228011 
681.000000	 84.278726 
680.000000	 84.319785 
679.000000	 84.365086 
678.000000	 84.431340 
677.000000	 84.516764 
676.000000	 84.598018 
675.000000	 84.657843 
674.000000	 84.705580 
673.000000	 84.761675 
672.000000	 84.835229 
671.000000	 84.928287 
670.000000	 85.050704 
669.000000	 85.207592 
668.000000	 85.330603 
667.000000	 85.333758 
666.000000	 85.261828 
665.000000	 85.194015 
664.000000	 85.162861 
663.000000	 85.178632 
662.000000	 85.230405 
661.000000	 85.294184 
660.000000	 85.348258 
659.000000	 85.385199 
658.000000	 85.403987 
657.000000	 85.402666 
656.000000	 85.389632 
655.000000	 85.388977 
654.000000	 85.413398 
653.000000	 85.447837 
652.000000	 85.475289 
651.000000	 85.500326 
650.000000	 85.535338 

