PE IR                   SPECTRUM    ASCII       PEDS        1.60        
  -1
~SP.SP
22/12/06
12:27:52.00
23/01/09
14:26:02.00
Administrator

650.000000
4









FRONTIER FT-IR,CPU32 MAIN 00.09.9951 07-SEPTEMBER-2011 11:49:41
MIR TGS
MIR
OPTKBR
90694
0.200000

4.000000
STRONG
RATIO
SPECTRUM
MAGNITUDE
MIRACLE ATR
DOUBLE

COMBINED


0


#HDR
-1
-1
#GR
CM-1
%T
0.00002384185791015625
0.0
4000.000000
-1.000000
3351
8
84.370649
70.137396
#DATA
4000.000000	84.331427 
3999.000000	84.330130 
3998.000000	84.328765 
3997.000000	84.327574 
3996.000000	84.326784 
3995.000000	84.326553 
3994.000000	84.326564 
3993.000000	84.326125 
3992.000000	84.324770 
3991.000000	84.322640 
3990.000000	84.320649 
3989.000000	84.319599 
3988.000000	84.319618 
3987.000000	84.320143 
3986.000000	84.320393 
3985.000000	84.319874 
3984.000000	84.318453 
3983.000000	84.316272 
3982.000000	84.313691 
3981.000000	84.311152 
3980.000000	84.308963 
3979.000000	84.307228 
3978.000000	84.305925 
3977.000000	84.304906 
3976.000000	84.303868 
3975.000000	84.302499 
3974.000000	84.300802 
3973.000000	84.299202 
3972.000000	84.298218 
3971.000000	84.298030 
3970.000000	84.298402 
3969.000000	84.298962 
3968.000000	84.299474 
3967.000000	84.299749 
3966.000000	84.299425 
3965.000000	84.298059 
3964.000000	84.295548 
3963.000000	84.292462 
3962.000000	84.289856 
3961.000000	84.288530 
3960.000000	84.288453 
3959.000000	84.288899 
3958.000000	84.289092 
3957.000000	84.288786 
3956.000000	84.288258 
3955.000000	84.287836 
3954.000000	84.287527 
3953.000000	84.286995 
3952.000000	84.285835 
3951.000000	84.283912 
3950.000000	84.281565 
3949.000000	84.279481 
3948.000000	84.278026 
3947.000000	84.276784 
3946.000000	84.275047 
3945.000000	84.272677 
3944.000000	84.270358 
3943.000000	84.269059 
3942.000000	84.269212 
3941.000000	84.270283 
3940.000000	84.271240 
3939.000000	84.271294 
3938.000000	84.270084 
3937.000000	84.267560 
3936.000000	84.264031 
3935.000000	84.260241 
3934.000000	84.257150 
3933.000000	84.255416 
3932.000000	84.255160 
3931.000000	84.256133 
3930.000000	84.257806 
3929.000000	84.259417 
3928.000000	84.260055 
3927.000000	84.259114 
3926.000000	84.256870 
3925.000000	84.254544 
3924.000000	84.253420 
3923.000000	84.253640 
3922.000000	84.254050 
3921.000000	84.253397 
3920.000000	84.251593 
3919.000000	84.249855 
3918.000000	84.249670 
3917.000000	84.251375 
3916.000000	84.253821 
3915.000000	84.255488 
3914.000000	84.255913 
3913.000000	84.255859 
3912.000000	84.256207 
3911.000000	84.256967 
3910.000000	84.257168 
3909.000000	84.255838 
3908.000000	84.253053 
3907.000000	84.249822 
3906.000000	84.247151 
3905.000000	84.245069 
3904.000000	84.242576 
3903.000000	84.238681 
3902.000000	84.233739 
3901.000000	84.230181 
3900.000000	84.230836 
3899.000000	84.235883 
3898.000000	84.242596 
3897.000000	84.247772 
3896.000000	84.250091 
3895.000000	84.249946 
3894.000000	84.247774 
3893.000000	84.243925 
3892.000000	84.240189 
3891.000000	84.239240 
3890.000000	84.240923 
3889.000000	84.241949 
3888.000000	84.240398 
3887.000000	84.237037 
3886.000000	84.233536 
3885.000000	84.231421 
3884.000000	84.230150 
3883.000000	84.227931 
3882.000000	84.225415 
3881.000000	84.225595 
3880.000000	84.230190 
3879.000000	84.237093 
3878.000000	84.241949 
3877.000000	84.243476 
3876.000000	84.244453 
3875.000000	84.247193 
3874.000000	84.250952 
3873.000000	84.253221 
3872.000000	84.252986 
3871.000000	84.252535 
3870.000000	84.255069 
3869.000000	84.260225 
3868.000000	84.263261 
3867.000000	84.261052 
3866.000000	84.255689 
3865.000000	84.250432 
3864.000000	84.247148 
3863.000000	84.246736 
3862.000000	84.247973 
3861.000000	84.248974 
3860.000000	84.250260 
3859.000000	84.255191 
3858.000000	84.268414 
3857.000000	84.292505 
3856.000000	84.322965 
3855.000000	84.346035 
3854.000000	84.351859 
3853.000000	84.350121 
3852.000000	84.350803 
3851.000000	84.344215 
3850.000000	84.325366 
3849.000000	84.303665 
3848.000000	84.287662 
3847.000000	84.278901 
3846.000000	84.274944 
3845.000000	84.272761 
3844.000000	84.271313 
3843.000000	84.271377 
3842.000000	84.273905 
3841.000000	84.279667 
3840.000000	84.289097 
3839.000000	84.301847 
3838.000000	84.316852 
3837.000000	84.330627 
3836.000000	84.336988 
3835.000000	84.331845 
3834.000000	84.317506 
3833.000000	84.301217 
3832.000000	84.289550 
3831.000000	84.284364 
3830.000000	84.283042 
3829.000000	84.281865 
3828.000000	84.279655 
3827.000000	84.277988 
3826.000000	84.278191 
3825.000000	84.279612 
3824.000000	84.280771 
3823.000000	84.280827 
3822.000000	84.281001 
3821.000000	84.285277 
3820.000000	84.294934 
3819.000000	84.304769 
3818.000000	84.310920 
3817.000000	84.314148 
3816.000000	84.314484 
3815.000000	84.310696 
3814.000000	84.301744 
3813.000000	84.288766 
3812.000000	84.276812 
3811.000000	84.270849 
3810.000000	84.271329 
3809.000000	84.274801 
3808.000000	84.277995 
3807.000000	84.280795 
3806.000000	84.283584 
3805.000000	84.284001 
3804.000000	84.280936 
3803.000000	84.276944 
3802.000000	84.274018 
3801.000000	84.272416 
3800.000000	84.269498 
3799.000000	84.260479 
3798.000000	84.247175 
3797.000000	84.237143 
3796.000000	84.233142 
3795.000000	84.230997 
3794.000000	84.225184 
3793.000000	84.214055 
3792.000000	84.200594 
3791.000000	84.189573 
3790.000000	84.184279 
3789.000000	84.184592 
3788.000000	84.187369 
3787.000000	84.188938 
3786.000000	84.188123 
3785.000000	84.187022 
3784.000000	84.188367 
3783.000000	84.193070 
3782.000000	84.200316 
3781.000000	84.208284 
3780.000000	84.214556 
3779.000000	84.217258 
3778.000000	84.215753 
3777.000000	84.210717 
3776.000000	84.204794 
3775.000000	84.200778 
3774.000000	84.198740 
3773.000000	84.197002 
3772.000000	84.195425 
3771.000000	84.196355 
3770.000000	84.201859 
3769.000000	84.209960 
3768.000000	84.215150 
3767.000000	84.214830 
3766.000000	84.212491 
3765.000000	84.212027 
3764.000000	84.212713 
3763.000000	84.211401 
3762.000000	84.206827 
3761.000000	84.200096 
3760.000000	84.193210 
3759.000000	84.189627 
3758.000000	84.192616 
3757.000000	84.202020 
3756.000000	84.216455 
3755.000000	84.235787 
3754.000000	84.258533 
3753.000000	84.279240 
3752.000000	84.292227 
3751.000000	84.300384 
3750.000000	84.311198 
3749.000000	84.320929 
3748.000000	84.320070 
3747.000000	84.310357 
3746.000000	84.298575 
3745.000000	84.285094 
3744.000000	84.270753 
3743.000000	84.254577 
3742.000000	84.229643 
3741.000000	84.200327 
3740.000000	84.179524 
3739.000000	84.169012 
3738.000000	84.158889 
3737.000000	84.141669 
3736.000000	84.125559 
3735.000000	84.126825 
3734.000000	84.148466 
3733.000000	84.175595 
3732.000000	84.189989 
3731.000000	84.183281 
3730.000000	84.157213 
3729.000000	84.119618 
3728.000000	84.081087 
3727.000000	84.050300 
3726.000000	84.031163 
3725.000000	84.022418 
3724.000000	84.019455 
3723.000000	84.018055 
3722.000000	84.016626 
3721.000000	84.015392 
3720.000000	84.013619 
3719.000000	84.009271 
3718.000000	84.000613 
3717.000000	83.987435 
3716.000000	83.972785 
3715.000000	83.960666 
3714.000000	83.950678 
3713.000000	83.937019 
3712.000000	83.915801 
3711.000000	83.891434 
3710.000000	83.869180 
3709.000000	83.848055 
3708.000000	83.826324 
3707.000000	83.805345 
3706.000000	83.786208 
3705.000000	83.766505 
3704.000000	83.741402 
3703.000000	83.707872 
3702.000000	83.668282 
3701.000000	83.628333 
3700.000000	83.589914 
3699.000000	83.550826 
3698.000000	83.510786 
3697.000000	83.471952 
3696.000000	83.436291 
3695.000000	83.405592 
3694.000000	83.382678 
3693.000000	83.371092 
3692.000000	83.371797 
3691.000000	83.379498 
3690.000000	83.384275 
3689.000000	83.379237 
3688.000000	83.363185 
3687.000000	83.335460 
3686.000000	83.298428 
3685.000000	83.261897 
3684.000000	83.235012 
3683.000000	83.218809 
3682.000000	83.208498 
3681.000000	83.198690 
3680.000000	83.185721 
3679.000000	83.166043 
3678.000000	83.136392 
3677.000000	83.098981 
3676.000000	83.069183 
3675.000000	83.066278 
3674.000000	83.083824 
3673.000000	83.095299 
3672.000000	83.090607 
3671.000000	83.074602 
3670.000000	83.052718 
3669.000000	83.033016 
3668.000000	83.017704 
3667.000000	83.001248 
3666.000000	82.981677 
3665.000000	82.959933 
3664.000000	82.936055 
3663.000000	82.913483 
3662.000000	82.899845 
3661.000000	82.900098 
3660.000000	82.912032 
3659.000000	82.928820 
3658.000000	82.945198 
3657.000000	82.961177 
3656.000000	82.979297 
3655.000000	82.997713 
3654.000000	83.011258 
3653.000000	83.020338 
3652.000000	83.028303 
3651.000000	83.032125 
3650.000000	83.029292 
3649.000000	83.031170 
3648.000000	83.049884 
3647.000000	83.077972 
3646.000000	83.099527 
3645.000000	83.110606 
3644.000000	83.117675 
3643.000000	83.126719 
3642.000000	83.138225 
3641.000000	83.149316 
3640.000000	83.158820 
3639.000000	83.168447 
3638.000000	83.179628 
3637.000000	83.190656 
3636.000000	83.199267 
3635.000000	83.207150 
3634.000000	83.219135 
3633.000000	83.237922 
3632.000000	83.260181 
3631.000000	83.277807 
3630.000000	83.283599 
3629.000000	83.282110 
3628.000000	83.285849 
3627.000000	83.293446 
3626.000000	83.296954 
3625.000000	83.300419 
3624.000000	83.310511 
3623.000000	83.325818 
3622.000000	83.340891 
3621.000000	83.351887 
3620.000000	83.358624 
3619.000000	83.363956 
3618.000000	83.369923 
3617.000000	83.375323 
3616.000000	83.379367 
3615.000000	83.383705 
3614.000000	83.390134 
3613.000000	83.399699 
3612.000000	83.412188 
3611.000000	83.425016 
3610.000000	83.434693 
3609.000000	83.440619 
3608.000000	83.446514 
3607.000000	83.456604 
3606.000000	83.470933 
3605.000000	83.485797 
3604.000000	83.497855 
3603.000000	83.506188 
3602.000000	83.512500 
3601.000000	83.519702 
3600.000000	83.528515 
3599.000000	83.535993 
3598.000000	83.538133 
3597.000000	83.534091 
3596.000000	83.528040 
3595.000000	83.526162 
3594.000000	83.531341 
3593.000000	83.541134 
3592.000000	83.550313 
3591.000000	83.555008 
3590.000000	83.554013 
3589.000000	83.548404 
3588.000000	83.542584 
3587.000000	83.542764 
3586.000000	83.550557 
3585.000000	83.561319 
3584.000000	83.570489 
3583.000000	83.577083 
3582.000000	83.581764 
3581.000000	83.585031 
3580.000000	83.587011 
3579.000000	83.587721 
3578.000000	83.587448 
3577.000000	83.586779 
3576.000000	83.585942 
3575.000000	83.584502 
3574.000000	83.581797 
3573.000000	83.577668 
3572.000000	83.572159 
3571.000000	83.564518 
3570.000000	83.553312 
3569.000000	83.538271 
3568.000000	83.523046 
3567.000000	83.514659 
3566.000000	83.517225 
3565.000000	83.527928 
3564.000000	83.540821 
3563.000000	83.551632 
3562.000000	83.558010 
3561.000000	83.559151 
3560.000000	83.556791 
3559.000000	83.554608 
3558.000000	83.555235 
3557.000000	83.557859 
3556.000000	83.559135 
3555.000000	83.556493 
3554.000000	83.550445 
3553.000000	83.543824 
3552.000000	83.539000 
3551.000000	83.535958 
3550.000000	83.533215 
3549.000000	83.529752 
3548.000000	83.525474 
3547.000000	83.520912 
3546.000000	83.517503 
3545.000000	83.517342 
3544.000000	83.521356 
3543.000000	83.527753 
3542.000000	83.532896 
3541.000000	83.534087 
3540.000000	83.531367 
3539.000000	83.526931 
3538.000000	83.523178 
3537.000000	83.521089 
3536.000000	83.520207 
3535.000000	83.519658 
3534.000000	83.518983 
3533.000000	83.518094 
3532.000000	83.516703 
3531.000000	83.514186 
3530.000000	83.510239 
3529.000000	83.505543 
3528.000000	83.501352 
3527.000000	83.498261 
3526.000000	83.495772 
3525.000000	83.493212 
3524.000000	83.490655 
3523.000000	83.488673 
3522.000000	83.487475 
3521.000000	83.486684 
3520.000000	83.485757 
3519.000000	83.484335 
3518.000000	83.482310 
3517.000000	83.479809 
3516.000000	83.477174 
3515.000000	83.474715 
3514.000000	83.472314 
3513.000000	83.469450 
3512.000000	83.465766 
3511.000000	83.461567 
3510.000000	83.457663 
3509.000000	83.454677 
3508.000000	83.452487 
3507.000000	83.450364 
3506.000000	83.447598 
3505.000000	83.444052 
3504.000000	83.440138 
3503.000000	83.436473 
3502.000000	83.433367 
3501.000000	83.430680 
3500.000000	83.428036 
3499.000000	83.425175 
3498.000000	83.422139 
3497.000000	83.419134 
3496.000000	83.416285 
3495.000000	83.413526 
3494.000000	83.410685 
3493.000000	83.407683 
3492.000000	83.404605 
3491.000000	83.401597 
3490.000000	83.398725 
3489.000000	83.395958 
3488.000000	83.393219 
3487.000000	83.390427 
3486.000000	83.387517 
3485.000000	83.384460 
3484.000000	83.381287 
3483.000000	83.378069 
3482.000000	83.374865 
3481.000000	83.371692 
3480.000000	83.368549 
3479.000000	83.365423 
3478.000000	83.362288 
3477.000000	83.359105 
3476.000000	83.355849 
3475.000000	83.352529 
3474.000000	83.349208 
3473.000000	83.345961 
3472.000000	83.342813 
3471.000000	83.339688 
3470.000000	83.336443 
3469.000000	83.332984 
3468.000000	83.329397 
3467.000000	83.325941 
3466.000000	83.322838 
3465.000000	83.320027 
3464.000000	83.317171 
3463.000000	83.313987 
3462.000000	83.310572 
3461.000000	83.307317 
3460.000000	83.304410 
3459.000000	83.301545 
3458.000000	83.298219 
3457.000000	83.294222 
3456.000000	83.289787 
3455.000000	83.285354 
3454.000000	83.281233 
3453.000000	83.277503 
3452.000000	83.274027 
3451.000000	83.270462 
3450.000000	83.266415 
3449.000000	83.261800 
3448.000000	83.257086 
3447.000000	83.253020 
3446.000000	83.249900 
3445.000000	83.247192 
3444.000000	83.243952 
3443.000000	83.239624 
3442.000000	83.234442 
3441.000000	83.229317 
3440.000000	83.225202 
3439.000000	83.222323 
3438.000000	83.219862 
3437.000000	83.216535 
3436.000000	83.211813 
3435.000000	83.206469 
3434.000000	83.201909 
3433.000000	83.198967 
3432.000000	83.197450 
3431.000000	83.196639 
3430.000000	83.195911 
3429.000000	83.194911 
3428.000000	83.193334 
3427.000000	83.190808 
3426.000000	83.187150 
3425.000000	83.182678 
3424.000000	83.178158 
3423.000000	83.174281 
3422.000000	83.171118 
3421.000000	83.168257 
3420.000000	83.165446 
3419.000000	83.162921 
3418.000000	83.160998 
3417.000000	83.159471 
3416.000000	83.157585 
3415.000000	83.154696 
3414.000000	83.150955 
3413.000000	83.147337 
3412.000000	83.144874 
3411.000000	83.143705 
3410.000000	83.142860 
3409.000000	83.141106 
3408.000000	83.138131 
3407.000000	83.134954 
3406.000000	83.133057 
3405.000000	83.133081 
3404.000000	83.134279 
3403.000000	83.135026 
3402.000000	83.134059 
3401.000000	83.131439 
3400.000000	83.128548 
3399.000000	83.127059 
3398.000000	83.127632 
3397.000000	83.129516 
3396.000000	83.131203 
3395.000000	83.131607 
3394.000000	83.130685 
3393.000000	83.129246 
3392.000000	83.128364 
3391.000000	83.128700 
3390.000000	83.130019 
3389.000000	83.131255 
3388.000000	83.131296 
3387.000000	83.129908 
3386.000000	83.127962 
3385.000000	83.126678 
3384.000000	83.126640 
3383.000000	83.127551 
3382.000000	83.128796 
3381.000000	83.130057 
3380.000000	83.131295 
3379.000000	83.132283 
3378.000000	83.132467 
3377.000000	83.131538 
3376.000000	83.130158 
3375.000000	83.129829 
3374.000000	83.131815 
3373.000000	83.136250 
3372.000000	83.142108 
3371.000000	83.147837 
3370.000000	83.152075 
3369.000000	83.154094 
3368.000000	83.154081 
3367.000000	83.153088 
3366.000000	83.152407 
3365.000000	83.152755 
3364.000000	83.154156 
3363.000000	83.156444 
3362.000000	83.159516 
3361.000000	83.163102 
3360.000000	83.166684 
3359.000000	83.169906 
3358.000000	83.172925 
3357.000000	83.176140 
3356.000000	83.179574 
3355.000000	83.182656 
3354.000000	83.184647 
3353.000000	83.185260 
3352.000000	83.184956 
3351.000000	83.184769 
3350.000000	83.185606 
3349.000000	83.187627 
3348.000000	83.190294 
3347.000000	83.192963 
3346.000000	83.195493 
3345.000000	83.198169 
3344.000000	83.201152 
3343.000000	83.204194 
3342.000000	83.206851 
3341.000000	83.208890 
3340.000000	83.210465 
3339.000000	83.211981 
3338.000000	83.213783 
3337.000000	83.215942 
3336.000000	83.218241 
3335.000000	83.220342 
3334.000000	83.222029 
3333.000000	83.223337 
3332.000000	83.224522 
3331.000000	83.225919 
3330.000000	83.227710 
3329.000000	83.229824 
3328.000000	83.231938 
3327.000000	83.233696 
3326.000000	83.235011 
3325.000000	83.236102 
3324.000000	83.237290 
3323.000000	83.238721 
3322.000000	83.240332 
3321.000000	83.241963 
3320.000000	83.243489 
3319.000000	83.244882 
3318.000000	83.246161 
3317.000000	83.247319 
3316.000000	83.248326 
3315.000000	83.249197 
3314.000000	83.250026 
3313.000000	83.250892 
3312.000000	83.251772 
3311.000000	83.252623 
3310.000000	83.253550 
3309.000000	83.254762 
3308.000000	83.256314 
3307.000000	83.257960 
3306.000000	83.259344 
3305.000000	83.260350 
3304.000000	83.261158 
3303.000000	83.262044 
3302.000000	83.263088 
3301.000000	83.264135 
3300.000000	83.265030 
3299.000000	83.265823 
3298.000000	83.266711 
3297.000000	83.267806 
3296.000000	83.269048 
3295.000000	83.270284 
3294.000000	83.271370 
3293.000000	83.272169 
3292.000000	83.272584 
3291.000000	83.272692 
3290.000000	83.272854 
3289.000000	83.273492 
3288.000000	83.274742 
3287.000000	83.276277 
3286.000000	83.277526 
3285.000000	83.278113 
3284.000000	83.277976 
3283.000000	83.277320 
3282.000000	83.276539 
3281.000000	83.276107 
3280.000000	83.276339 
3279.000000	83.277115 
3278.000000	83.277965 
3277.000000	83.278524 
3276.000000	83.278881 
3275.000000	83.279426 
3274.000000	83.280391 
3273.000000	83.281618 
3272.000000	83.282730 
3271.000000	83.283397 
3270.000000	83.283476 
3269.000000	83.283074 
3268.000000	83.282575 
3267.000000	83.282465 
3266.000000	83.282990 
3265.000000	83.283971 
3264.000000	83.285017 
3263.000000	83.285906 
3262.000000	83.286680 
3261.000000	83.287354 
3260.000000	83.287602 
3259.000000	83.286947 
3258.000000	83.285338 
3257.000000	83.283559 
3256.000000	83.282870 
3255.000000	83.283953 
3254.000000	83.286144 
3253.000000	83.287884 
3252.000000	83.288106 
3251.000000	83.287023 
3250.000000	83.285567 
3249.000000	83.284391 
3248.000000	83.283639 
3247.000000	83.283363 
3246.000000	83.283462 
3245.000000	83.283144 
3244.000000	83.281231 
3243.000000	83.277537 
3242.000000	83.273635 
3241.000000	83.271477 
3240.000000	83.271202 
3239.000000	83.271011 
3238.000000	83.269360 
3237.000000	83.266938 
3236.000000	83.265922 
3235.000000	83.267576 
3234.000000	83.271121 
3233.000000	83.274623 
3232.000000	83.276661 
3231.000000	83.277055 
3230.000000	83.276443 
3229.000000	83.275703 
3228.000000	83.275616 
3227.000000	83.276606 
3226.000000	83.278481 
3225.000000	83.280442 
3224.000000	83.281593 
3223.000000	83.281687 
3222.000000	83.281397 
3221.000000	83.281749 
3220.000000	83.283142 
3219.000000	83.284931 
3218.000000	83.286019 
3217.000000	83.285870 
3216.000000	83.285000 
3215.000000	83.284589 
3214.000000	83.285635 
3213.000000	83.288342 
3212.000000	83.292034 
3211.000000	83.295633 
3210.000000	83.298414 
3209.000000	83.300419 
3208.000000	83.302162 
3207.000000	83.303932 
3206.000000	83.305450 
3205.000000	83.306224 
3204.000000	83.306070 
3203.000000	83.305256 
3202.000000	83.304374 
3201.000000	83.304258 
3200.000000	83.305747 
3199.000000	83.309166 
3198.000000	83.313919 
3197.000000	83.318690 
3196.000000	83.322412 
3195.000000	83.324959 
3194.000000	83.326895 
3193.000000	83.328837 
3192.000000	83.331032 
3191.000000	83.333356 
3190.000000	83.335505 
3189.000000	83.337220 
3188.000000	83.338504 
3187.000000	83.339722 
3186.000000	83.341402 
3185.000000	83.343826 
3184.000000	83.346800 
3183.000000	83.349742 
3182.000000	83.352086 
3181.000000	83.353682 
3180.000000	83.354857 
3179.000000	83.356169 
3178.000000	83.357962 
3177.000000	83.360146 
3176.000000	83.362383 
3175.000000	83.364467 
3174.000000	83.366523 
3173.000000	83.368767 
3172.000000	83.371154 
3171.000000	83.373365 
3170.000000	83.375174 
3169.000000	83.376723 
3168.000000	83.378384 
3167.000000	83.380365 
3166.000000	83.382558 
3165.000000	83.384741 
3164.000000	83.386804 
3163.000000	83.388723 
3162.000000	83.390478 
3161.000000	83.392111 
3160.000000	83.393819 
3159.000000	83.395814 
3158.000000	83.398115 
3157.000000	83.400532 
3156.000000	83.402807 
3155.000000	83.404820 
3154.000000	83.406633 
3153.000000	83.408395 
3152.000000	83.410192 
3151.000000	83.411991 
3150.000000	83.413684 
3149.000000	83.415202 
3148.000000	83.416600 
3147.000000	83.418039 
3146.000000	83.419703 
3145.000000	83.421689 
3144.000000	83.423911 
3143.000000	83.426047 
3142.000000	83.427712 
3141.000000	83.428793 
3140.000000	83.429533 
3139.000000	83.430316 
3138.000000	83.431353 
3137.000000	83.432615 
3136.000000	83.433987 
3135.000000	83.435392 
3134.000000	83.436776 
3133.000000	83.438137 
3132.000000	83.439567 
3131.000000	83.441164 
3130.000000	83.442873 
3129.000000	83.444485 
3128.000000	83.445840 
3127.000000	83.446972 
3126.000000	83.448056 
3125.000000	83.449255 
3124.000000	83.450602 
3123.000000	83.452024 
3122.000000	83.453413 
3121.000000	83.454702 
3120.000000	83.455897 
3119.000000	83.457054 
3118.000000	83.458227 
3117.000000	83.459438 
3116.000000	83.460692 
3115.000000	83.462002 
3114.000000	83.463381 
3113.000000	83.464787 
3112.000000	83.466114 
3111.000000	83.467355 
3110.000000	83.468815 
3109.000000	83.470853 
3108.000000	83.473195 
3107.000000	83.474814 
3106.000000	83.474929 
3105.000000	83.474092 
3104.000000	83.474047 
3103.000000	83.476305 
3102.000000	83.480736 
3101.000000	83.485361 
3100.000000	83.488044 
3099.000000	83.488540 
3098.000000	83.488458 
3097.000000	83.488813 
3096.000000	83.488229 
3095.000000	83.484680 
3094.000000	83.478773 
3093.000000	83.474084 
3092.000000	83.473759 
3091.000000	83.477609 
3090.000000	83.482940 
3089.000000	83.487542 
3088.000000	83.491054 
3087.000000	83.493711 
3086.000000	83.494909 
3085.000000	83.493775 
3084.000000	83.490886 
3083.000000	83.488524 
3082.000000	83.488751 
3081.000000	83.491639 
3080.000000	83.495975 
3079.000000	83.501229 
3078.000000	83.507757 
3077.000000	83.515064 
3076.000000	83.521195 
3075.000000	83.524584 
3074.000000	83.525750 
3073.000000	83.526418 
3072.000000	83.527483 
3071.000000	83.528559 
3070.000000	83.528839 
3069.000000	83.527362 
3068.000000	83.522810 
3067.000000	83.514467 
3066.000000	83.503809 
3065.000000	83.494341 
3064.000000	83.489287 
3063.000000	83.489507 
3062.000000	83.493380 
3061.000000	83.497959 
3060.000000	83.500365 
3059.000000	83.499207 
3058.000000	83.495434 
3057.000000	83.491496 
3056.000000	83.488997 
3055.000000	83.486818 
3054.000000	83.481670 
3053.000000	83.470743 
3052.000000	83.454439 
3051.000000	83.437072 
3050.000000	83.424389 
3049.000000	83.419284 
3048.000000	83.419217 
3047.000000	83.418110 
3046.000000	83.411261 
3045.000000	83.398750 
3044.000000	83.384549 
3043.000000	83.372454 
3042.000000	83.362390 
3041.000000	83.350194 
3040.000000	83.331118 
3039.000000	83.303968 
3038.000000	83.272044 
3037.000000	83.239862 
3036.000000	83.208930 
3035.000000	83.177345 
3034.000000	83.143216 
3033.000000	83.106665 
3032.000000	83.068881 
3031.000000	83.030421 
3030.000000	82.989755 
3029.000000	82.943677 
3028.000000	82.890337 
3027.000000	82.831688 
3026.000000	82.772226 
3025.000000	82.715130 
3024.000000	82.660092 
3023.000000	82.605058 
3022.000000	82.549072 
3021.000000	82.492448 
3020.000000	82.434795 
3019.000000	82.374378 
3018.000000	82.309760 
3017.000000	82.241269 
3016.000000	82.170412 
3015.000000	82.098259 
3014.000000	82.024620 
3013.000000	81.948375 
3012.000000	81.868525 
3011.000000	81.785415 
3010.000000	81.701015 
3009.000000	81.617458 
3008.000000	81.535092 
3007.000000	81.452468 
3006.000000	81.368587 
3005.000000	81.284689 
3004.000000	81.203152 
3003.000000	81.124747 
3002.000000	81.047780 
3001.000000	80.970267 
3000.000000	80.892326 
2999.000000	80.816123 
2998.000000	80.744671 
2997.000000	80.681841 
2996.000000	80.631094 
2995.000000	80.588596 
2994.000000	80.535496 
2993.000000	80.443674 
2992.000000	80.299224 
2991.000000	80.123230 
2990.000000	79.963746 
2989.000000	79.861899 
2988.000000	79.826501 
2987.000000	79.839017 
2986.000000	79.874874 
2985.000000	79.915694 
2984.000000	79.947230 
2983.000000	79.958460 
2982.000000	79.947915 
2981.000000	79.925705 
2980.000000	79.904731 
2979.000000	79.891192 
2978.000000	79.884411 
2977.000000	79.881641 
2976.000000	79.880218 
2975.000000	79.878644 
2974.000000	79.880284 
2973.000000	79.894830 
2972.000000	79.931940 
2971.000000	79.992970 
2970.000000	80.071326 
2969.000000	80.160817 
2968.000000	80.260734 
2967.000000	80.371925 
2966.000000	80.490356 
2965.000000	80.606776 
2964.000000	80.712124 
2963.000000	80.801953 
2962.000000	80.876383 
2961.000000	80.937882 
2960.000000	80.990181 
2959.000000	81.038222 
2958.000000	81.086875 
2957.000000	81.138084 
2956.000000	81.189503 
2955.000000	81.237284 
2954.000000	81.280617 
2953.000000	81.322433 
2952.000000	81.365134 
2951.000000	81.406666 
2950.000000	81.441820 
2949.000000	81.466787 
2948.000000	81.481370 
2947.000000	81.487664 
2946.000000	81.488961 
2945.000000	81.490164 
2944.000000	81.497030 
2943.000000	81.513512 
2942.000000	81.539519 
2941.000000	81.571084 
2940.000000	81.602729 
2939.000000	81.630621 
2938.000000	81.654960 
2937.000000	81.680011 
2936.000000	81.710983 
2935.000000	81.749519 
2934.000000	81.791860 
2933.000000	81.831738 
2932.000000	81.865337 
2931.000000	81.893478 
2930.000000	81.919413 
2929.000000	81.945025 
2928.000000	81.969082 
2927.000000	81.988565 
2926.000000	82.001327 
2925.000000	82.007930 
2924.000000	82.011417 
2923.000000	82.015228 
2922.000000	82.020798 
2921.000000	82.026628 
2920.000000	82.029104 
2919.000000	82.023214 
2918.000000	82.002089 
2917.000000	81.957246 
2916.000000	81.882094 
2915.000000	81.777400 
2914.000000	81.654012 
2913.000000	81.529721 
2912.000000	81.421572 
2911.000000	81.338294 
2910.000000	81.277016 
2909.000000	81.226541 
2908.000000	81.175905 
2907.000000	81.121103 
2906.000000	81.062733 
2905.000000	80.998106 
2904.000000	80.921028 
2903.000000	80.834384 
2902.000000	80.760526 
2901.000000	80.730917 
2900.000000	80.761122 
2899.000000	80.835737 
2898.000000	80.918736 
2897.000000	80.979191 
2896.000000	81.008222 
2895.000000	81.016134 
2894.000000	81.019025 
2893.000000	81.028146 
2892.000000	81.046582 
2891.000000	81.070612 
2890.000000	81.093084 
2889.000000	81.107418 
2888.000000	81.110890 
2887.000000	81.106218 
2886.000000	81.101005 
2885.000000	81.105044 
2884.000000	81.126249 
2883.000000	81.167091 
2882.000000	81.223789 
2881.000000	81.288885 
2880.000000	81.355326 
2879.000000	81.419217 
2878.000000	81.479433 
2877.000000	81.535397 
2876.000000	81.585796 
2875.000000	81.629531 
2874.000000	81.667329 
2873.000000	81.701864 
2872.000000	81.736486 
2871.000000	81.773894 
2870.000000	81.815387 
2869.000000	81.860535 
2868.000000	81.908024 
2867.000000	81.957769 
2866.000000	82.011999 
2865.000000	82.073149 
2864.000000	82.140806 
2863.000000	82.212104 
2862.000000	82.285353 
2861.000000	82.361658 
2860.000000	82.442001 
2859.000000	82.524072 
2858.000000	82.603522 
2857.000000	82.678086 
2856.000000	82.748934 
2855.000000	82.817456 
2854.000000	82.882379 
2853.000000	82.940881 
2852.000000	82.991151 
2851.000000	83.032643 
2850.000000	83.063831 
2849.000000	83.080622 
2848.000000	83.078328 
2847.000000	83.056454 
2846.000000	83.022089 
2845.000000	82.987889 
2844.000000	82.965175 
2843.000000	82.957710 
2842.000000	82.961094 
2841.000000	82.967592 
2840.000000	82.972016 
2839.000000	82.974231 
2838.000000	82.977020 
2837.000000	82.982042 
2836.000000	82.988059 
2835.000000	82.992793 
2834.000000	82.995636 
2833.000000	82.997964 
2832.000000	83.001461 
2831.000000	83.007024 
2830.000000	83.014817 
2829.000000	83.024017 
2828.000000	83.032325 
2827.000000	83.037183 
2826.000000	83.038472 
2825.000000	83.039598 
2824.000000	83.045115 
2823.000000	83.056949 
2822.000000	83.072735 
2821.000000	83.087439 
2820.000000	83.096787 
2819.000000	83.099891 
2818.000000	83.099151 
2817.000000	83.097958 
2816.000000	83.098678 
2815.000000	83.102375 
2814.000000	83.108925 
2813.000000	83.116469 
2812.000000	83.122029 
2811.000000	83.124419 
2810.000000	83.126129 
2809.000000	83.130770 
2808.000000	83.138905 
2807.000000	83.147787 
2806.000000	83.154660 
2805.000000	83.158536 
2804.000000	83.159426 
2803.000000	83.158225 
2802.000000	83.157390 
2801.000000	83.159689 
2800.000000	83.165401 
2799.000000	83.171958 
2798.000000	83.176877 
2797.000000	83.179852 
2796.000000	83.181901 
2795.000000	83.183875 
2794.000000	83.186097 
2793.000000	83.188689 
2792.000000	83.191739 
2791.000000	83.195280 
2790.000000	83.199330 
2789.000000	83.203914 
2788.000000	83.208806 
2787.000000	83.213334 
2786.000000	83.216798 
2785.000000	83.219151 
2784.000000	83.221105 
2783.000000	83.223472 
2782.000000	83.226446 
2781.000000	83.229534 
2780.000000	83.232090 
2779.000000	83.233895 
2778.000000	83.235298 
2777.000000	83.236854 
2776.000000	83.238781 
2775.000000	83.240877 
2774.000000	83.242962 
2773.000000	83.245178 
2772.000000	83.247796 
2771.000000	83.250860 
2770.000000	83.254112 
2769.000000	83.257120 
2768.000000	83.259506 
2767.000000	83.261240 
2766.000000	83.262780 
2765.000000	83.264732 
2764.000000	83.267212 
2763.000000	83.269793 
2762.000000	83.272063 
2761.000000	83.274086 
2760.000000	83.276203 
2759.000000	83.278549 
2758.000000	83.280920 
2757.000000	83.283088 
2756.000000	83.285085 
2755.000000	83.287078 
2754.000000	83.289149 
2753.000000	83.291262 
2752.000000	83.293362 
2751.000000	83.295441 
2750.000000	83.297519 
2749.000000	83.299601 
2748.000000	83.301676 
2747.000000	83.303739 
2746.000000	83.305797 
2745.000000	83.307855 
2744.000000	83.309921 
2743.000000	83.311998 
2742.000000	83.314090 
2741.000000	83.316197 
2740.000000	83.318316 
2739.000000	83.320438 
2738.000000	83.322553 
2737.000000	83.324657 
2736.000000	83.326752 
2735.000000	83.328833 
2734.000000	83.330889 
2733.000000	83.332911 
2732.000000	83.334909 
2731.000000	83.336897 
2730.000000	83.338868 
2729.000000	83.340828 
2728.000000	83.342846 
2727.000000	83.345028 
2726.000000	83.347320 
2725.000000	83.349471 
2724.000000	83.351354 
2723.000000	83.353131 
2722.000000	83.354990 
2721.000000	83.356989 
2720.000000	83.359195 
2719.000000	83.361611 
2718.000000	83.363924 
2717.000000	83.365725 
2716.000000	83.367051 
2715.000000	83.368414 
2714.000000	83.370213 
2713.000000	83.372403 
2712.000000	83.374740 
2711.000000	83.376949 
2710.000000	83.378706 
2709.000000	83.379914 
2708.000000	83.381070 
2707.000000	83.382892 
2706.000000	83.385446 
2705.000000	83.388036 
2704.000000	83.390084 
2703.000000	83.391736 
2702.000000	83.393390 
2701.000000	83.394971 
2700.000000	83.395955 
2699.000000	83.396004 
2698.000000	83.395408 
2697.000000	83.395020 
2696.000000	83.395675 
2695.000000	83.397434 
2694.000000	83.399363 
2693.000000	83.400458 
2692.000000	83.401034 
2691.000000	83.402789 
2690.000000	83.407011 
2689.000000	83.412804 
2688.000000	83.417614 
2687.000000	83.419813 
2686.000000	83.420016 
2685.000000	83.419744 
2684.000000	83.419309 
2683.000000	83.417768 
2682.000000	83.414812 
2681.000000	83.411649 
2680.000000	83.409701 
2679.000000	83.409195 
2678.000000	83.409337 
2677.000000	83.409307 
2676.000000	83.408844 
2675.000000	83.408254 
2674.000000	83.408280 
2673.000000	83.409670 
2672.000000	83.412483 
2671.000000	83.415952 
2670.000000	83.419189 
2669.000000	83.421740 
2668.000000	83.423347 
2667.000000	83.423781 
2666.000000	83.423320 
2665.000000	83.422903 
2664.000000	83.423252 
2663.000000	83.424115 
2662.000000	83.424836 
2661.000000	83.425310 
2660.000000	83.425915 
2659.000000	83.426784 
2658.000000	83.427746 
2657.000000	83.428725 
2656.000000	83.429594 
2655.000000	83.429827 
2654.000000	83.429013 
2653.000000	83.427623 
2652.000000	83.426680 
2651.000000	83.426606 
2650.000000	83.426931 
2649.000000	83.427149 
2648.000000	83.427286 
2647.000000	83.427470 
2646.000000	83.427492 
2645.000000	83.427136 
2644.000000	83.426627 
2643.000000	83.426421 
2642.000000	83.426665 
2641.000000	83.427048 
2640.000000	83.427123 
2639.000000	83.426719 
2638.000000	83.426098 
2637.000000	83.425794 
2636.000000	83.426114 
2635.000000	83.426909 
2634.000000	83.427724 
2633.000000	83.428232 
2632.000000	83.428485 
2631.000000	83.428694 
2630.000000	83.428934 
2629.000000	83.429116 
2628.000000	83.429172 
2627.000000	83.429185 
2626.000000	83.429278 
2625.000000	83.429459 
2624.000000	83.429618 
2623.000000	83.429672 
2622.000000	83.429645 
2621.000000	83.429615 
2620.000000	83.429633 
2619.000000	83.429691 
2618.000000	83.429757 
2617.000000	83.429787 
2616.000000	83.429748 
2615.000000	83.429629 
2614.000000	83.429480 
2613.000000	83.429401 
2612.000000	83.429463 
2611.000000	83.429657 
2610.000000	83.429885 
2609.000000	83.430062 
2608.000000	83.430190 
2607.000000	83.430340 
2606.000000	83.430552 
2605.000000	83.430772 
2604.000000	83.430894 
2603.000000	83.430886 
2602.000000	83.430835 
2601.000000	83.430859 
2600.000000	83.430952 
2599.000000	83.430989 
2598.000000	83.430899 
2597.000000	83.430760 
2596.000000	83.430706 
2595.000000	83.430758 
2594.000000	83.430808 
2593.000000	83.430721 
2592.000000	83.430454 
2591.000000	83.430059 
2590.000000	83.429645 
2589.000000	83.429302 
2588.000000	83.429037 
2587.000000	83.428789 
2586.000000	83.428503 
2585.000000	83.428191 
2584.000000	83.427898 
2583.000000	83.427610 
2582.000000	83.427246 
2581.000000	83.426782 
2580.000000	83.426331 
2579.000000	83.426047 
2578.000000	83.425972 
2577.000000	83.426000 
2576.000000	83.425976 
2575.000000	83.425838 
2574.000000	83.425639 
2573.000000	83.425476 
2572.000000	83.425359 
2571.000000	83.425199 
2570.000000	83.424935 
2569.000000	83.424636 
2568.000000	83.424402 
2567.000000	83.424178 
2566.000000	83.423792 
2565.000000	83.423202 
2564.000000	83.422586 
2563.000000	83.422145 
2562.000000	83.421884 
2561.000000	83.421676 
2560.000000	83.421460 
2559.000000	83.421289 
2558.000000	83.421162 
2557.000000	83.420943 
2556.000000	83.420503 
2555.000000	83.419881 
2554.000000	83.419281 
2553.000000	83.418852 
2552.000000	83.418527 
2551.000000	83.418140 
2550.000000	83.417721 
2549.000000	83.417506 
2548.000000	83.417632 
2547.000000	83.417948 
2546.000000	83.418109 
2545.000000	83.417976 
2544.000000	83.417671 
2543.000000	83.417359 
2542.000000	83.417098 
2541.000000	83.416866 
2540.000000	83.416653 
2539.000000	83.416459 
2538.000000	83.416237 
2537.000000	83.415913 
2536.000000	83.415462 
2535.000000	83.414933 
2534.000000	83.414420 
2533.000000	83.413993 
2532.000000	83.413658 
2531.000000	83.413363 
2530.000000	83.413040 
2529.000000	83.412659 
2528.000000	83.412231 
2527.000000	83.411780 
2526.000000	83.411323 
2525.000000	83.410883 
2524.000000	83.410488 
2523.000000	83.410143 
2522.000000	83.409828 
2521.000000	83.409502 
2520.000000	83.409114 
2519.000000	83.408618 
2518.000000	83.408008 
2517.000000	83.407347 
2516.000000	83.406732 
2515.000000	83.406209 
2514.000000	83.405760 
2513.000000	83.405355 
2512.000000	83.404995 
2511.000000	83.404686 
2510.000000	83.404405 
2509.000000	83.404088 
2508.000000	83.403639 
2507.000000	83.402988 
2506.000000	83.402195 
2505.000000	83.401507 
2504.000000	83.401181 
2503.000000	83.401236 
2502.000000	83.401309 
2501.000000	83.400994 
2500.000000	83.400236 
2499.000000	83.399282 
2498.000000	83.398370 
2497.000000	83.397564 
2496.000000	83.396860 
2495.000000	83.396194 
2494.000000	83.395390 
2493.000000	83.394348 
2492.000000	83.393280 
2491.000000	83.392555 
2490.000000	83.392283 
2489.000000	83.392203 
2488.000000	83.392031 
2487.000000	83.391713 
2486.000000	83.391301 
2485.000000	83.390808 
2484.000000	83.390260 
2483.000000	83.389746 
2482.000000	83.389315 
2481.000000	83.388944 
2480.000000	83.388603 
2479.000000	83.388301 
2478.000000	83.388059 
2477.000000	83.387924 
2476.000000	83.387949 
2475.000000	83.388085 
2474.000000	83.388144 
2473.000000	83.387940 
2472.000000	83.387486 
2471.000000	83.386978 
2470.000000	83.386563 
2469.000000	83.386203 
2468.000000	83.385778 
2467.000000	83.385264 
2466.000000	83.384752 
2465.000000	83.384318 
2464.000000	83.383925 
2463.000000	83.383473 
2462.000000	83.382921 
2461.000000	83.382337 
2460.000000	83.381822 
2459.000000	83.381397 
2458.000000	83.381012 
2457.000000	83.380617 
2456.000000	83.380185 
2455.000000	83.379722 
2454.000000	83.379240 
2453.000000	83.378754 
2452.000000	83.378267 
2451.000000	83.377779 
2450.000000	83.377291 
2449.000000	83.376799 
2448.000000	83.376301 
2447.000000	83.375794 
2446.000000	83.375281 
2445.000000	83.374764 
2444.000000	83.374245 
2443.000000	83.373719 
2442.000000	83.373180 
2441.000000	83.372628 
2440.000000	83.372064 
2439.000000	83.371490 
2438.000000	83.370915 
2437.000000	83.370360 
2436.000000	83.369843 
2435.000000	83.369363 
2434.000000	83.368890 
2433.000000	83.368394 
2432.000000	83.367856 
2431.000000	83.367278 
2430.000000	83.366662 
2429.000000	83.366031 
2428.000000	83.365452 
2427.000000	83.364979 
2426.000000	83.364566 
2425.000000	83.364102 
2424.000000	83.363540 
2423.000000	83.362944 
2422.000000	83.362385 
2421.000000	83.361779 
2420.000000	83.360850 
2419.000000	83.359369 
2418.000000	83.357542 
2417.000000	83.356079 
2416.000000	83.355575 
2415.000000	83.355761 
2414.000000	83.355734 
2413.000000	83.355096 
2412.000000	83.354376 
2411.000000	83.354143 
2410.000000	83.354243 
2409.000000	83.354287 
2408.000000	83.354432 
2407.000000	83.355141 
2406.000000	83.356363 
2405.000000	83.357323 
2404.000000	83.357126 
2403.000000	83.355479 
2402.000000	83.353094 
2401.000000	83.351339 
2400.000000	83.350885 
2399.000000	83.350764 
2398.000000	83.349386 
2397.000000	83.346549 
2396.000000	83.343860 
2395.000000	83.343027 
2394.000000	83.344249 
2393.000000	83.346031 
2392.000000	83.346728 
2391.000000	83.345840 
2390.000000	83.343567 
2389.000000	83.340805 
2388.000000	83.338475 
2387.000000	83.336426 
2386.000000	83.334193 
2385.000000	83.331747 
2384.000000	83.329330 
2383.000000	83.327093 
2382.000000	83.325224 
2381.000000	83.324202 
2380.000000	83.324383 
2379.000000	83.325337 
2378.000000	83.326077 
2377.000000	83.326047 
2376.000000	83.325476 
2375.000000	83.324762 
2374.000000	83.324065 
2373.000000	83.323445 
2372.000000	83.322925 
2371.000000	83.322269 
2370.000000	83.321207 
2369.000000	83.319968 
2368.000000	83.319064 
2367.000000	83.318467 
2366.000000	83.317678 
2365.000000	83.316595 
2364.000000	83.315627 
2363.000000	83.314716 
2362.000000	83.313372 
2361.000000	83.311816 
2360.000000	83.310708 
2359.000000	83.310211 
2358.000000	83.310032 
2357.000000	83.309953 
2356.000000	83.310132 
2355.000000	83.310356 
2354.000000	83.310962 
2353.000000	83.311951 
2352.000000	83.312101 
2351.000000	83.310077 
2350.000000	83.305641 
2349.000000	83.299931 
2348.000000	83.294714 
2347.000000	83.291762 
2346.000000	83.291631 
2345.000000	83.292996 
2344.000000	83.293809 
2343.000000	83.293294 
2342.000000	83.292357 
2341.000000	83.291614 
2340.000000	83.290974 
2339.000000	83.290253 
2338.000000	83.289449 
2337.000000	83.288824 
2336.000000	83.288180 
2335.000000	83.287436 
2334.000000	83.286659 
2333.000000	83.286383 
2332.000000	83.286369 
2331.000000	83.286488 
2330.000000	83.286056 
2329.000000	83.285236 
2328.000000	83.283856 
2327.000000	83.282542 
2326.000000	83.281782 
2325.000000	83.281647 
2324.000000	83.281814 
2323.000000	83.282003 
2322.000000	83.282436 
2321.000000	83.283224 
2320.000000	83.283991 
2319.000000	83.284621 
2318.000000	83.284756 
2317.000000	83.284598 
2316.000000	83.283912 
2315.000000	83.283548 
2314.000000	83.283832 
2313.000000	83.285246 
2312.000000	83.286830 
2311.000000	83.288333 
2310.000000	83.289464 
2309.000000	83.290965 
2308.000000	83.292753 
2307.000000	83.295102 
2306.000000	83.297498 
2305.000000	83.299922 
2304.000000	83.301027 
2303.000000	83.301409 
2302.000000	83.301735 
2301.000000	83.303012 
2300.000000	83.304039 
2299.000000	83.305300 
2298.000000	83.306130 
2297.000000	83.306818 
2296.000000	83.306510 
2295.000000	83.306091 
2294.000000	83.306235 
2293.000000	83.307378 
2292.000000	83.308518 
2291.000000	83.308947 
2290.000000	83.308964 
2289.000000	83.309235 
2288.000000	83.310041 
2287.000000	83.310905 
2286.000000	83.311390 
2285.000000	83.310881 
2284.000000	83.309259 
2283.000000	83.306825 
2282.000000	83.304462 
2281.000000	83.302845 
2280.000000	83.302344 
2279.000000	83.302918 
2278.000000	83.304139 
2277.000000	83.305310 
2276.000000	83.305827 
2275.000000	83.305732 
2274.000000	83.305497 
2273.000000	83.305588 
2272.000000	83.306048 
2271.000000	83.306645 
2270.000000	83.307034 
2269.000000	83.306969 
2268.000000	83.306437 
2267.000000	83.305740 
2266.000000	83.305263 
2265.000000	83.305144 
2264.000000	83.305206 
2263.000000	83.305190 
2262.000000	83.305019 
2261.000000	83.304798 
2260.000000	83.304670 
2259.000000	83.304675 
2258.000000	83.304754 
2257.000000	83.304823 
2256.000000	83.304842 
2255.000000	83.304825 
2254.000000	83.304798 
2253.000000	83.304782 
2252.000000	83.304792 
2251.000000	83.304833 
2250.000000	83.304901 
2249.000000	83.304980 
2248.000000	83.305056 
2247.000000	83.305130 
2246.000000	83.305221 
2245.000000	83.305352 
2244.000000	83.305524 
2243.000000	83.305723 
2242.000000	83.305929 
2241.000000	83.306130 
2240.000000	83.306323 
2239.000000	83.306508 
2238.000000	83.306683 
2237.000000	83.306846 
2236.000000	83.306989 
2235.000000	83.307100 
2234.000000	83.307185 
2233.000000	83.307292 
2232.000000	83.307473 
2231.000000	83.307742 
2230.000000	83.308059 
2229.000000	83.308338 
2228.000000	83.308514 
2227.000000	83.308583 
2226.000000	83.308601 
2225.000000	83.308605 
2224.000000	83.308560 
2223.000000	83.308424 
2222.000000	83.308240 
2221.000000	83.308098 
2220.000000	83.308032 
2219.000000	83.307995 
2218.000000	83.307934 
2217.000000	83.307851 
2216.000000	83.307759 
2215.000000	83.307638 
2214.000000	83.307460 
2213.000000	83.307238 
2212.000000	83.307008 
2211.000000	83.306790 
2210.000000	83.306569 
2209.000000	83.306325 
2208.000000	83.306052 
2207.000000	83.305756 
2206.000000	83.305450 
2205.000000	83.305143 
2204.000000	83.304836 
2203.000000	83.304531 
2202.000000	83.304218 
2201.000000	83.303889 
2200.000000	83.303540 
2199.000000	83.303174 
2198.000000	83.302794 
2197.000000	83.302408 
2196.000000	83.302017 
2195.000000	83.301622 
2194.000000	83.301218 
2193.000000	83.300800 
2192.000000	83.300368 
2191.000000	83.299925 
2190.000000	83.299478 
2189.000000	83.299033 
2188.000000	83.298595 
2187.000000	83.298167 
2186.000000	83.297750 
2185.000000	83.297344 
2184.000000	83.296953 
2183.000000	83.296577 
2182.000000	83.296208 
2181.000000	83.295838 
2180.000000	83.295460 
2179.000000	83.295072 
2178.000000	83.294678 
2177.000000	83.294278 
2176.000000	83.293873 
2175.000000	83.293461 
2174.000000	83.293037 
2173.000000	83.292599 
2172.000000	83.292144 
2171.000000	83.291680 
2170.000000	83.291214 
2169.000000	83.290752 
2168.000000	83.290295 
2167.000000	83.289833 
2166.000000	83.289358 
2165.000000	83.288861 
2164.000000	83.288343 
2163.000000	83.287804 
2162.000000	83.287246 
2161.000000	83.286667 
2160.000000	83.286067 
2159.000000	83.285447 
2158.000000	83.284811 
2157.000000	83.284167 
2156.000000	83.283518 
2155.000000	83.282866 
2154.000000	83.282210 
2153.000000	83.281545 
2152.000000	83.280868 
2151.000000	83.280182 
2150.000000	83.279492 
2149.000000	83.278802 
2148.000000	83.278115 
2147.000000	83.277426 
2146.000000	83.276727 
2145.000000	83.276014 
2144.000000	83.275289 
2143.000000	83.274559 
2142.000000	83.273829 
2141.000000	83.273102 
2140.000000	83.272377 
2139.000000	83.271652 
2138.000000	83.270933 
2137.000000	83.270223 
2136.000000	83.269526 
2135.000000	83.268843 
2134.000000	83.268172 
2133.000000	83.267509 
2132.000000	83.266852 
2131.000000	83.266203 
2130.000000	83.265566 
2129.000000	83.264948 
2128.000000	83.264352 
2127.000000	83.263774 
2126.000000	83.263211 
2125.000000	83.262665 
2124.000000	83.262143 
2123.000000	83.261655 
2122.000000	83.261212 
2121.000000	83.260818 
2120.000000	83.260466 
2119.000000	83.260146 
2118.000000	83.259847 
2117.000000	83.259565 
2116.000000	83.259306 
2115.000000	83.259077 
2114.000000	83.258880 
2113.000000	83.258712 
2112.000000	83.258564 
2111.000000	83.258434 
2110.000000	83.258322 
2109.000000	83.258229 
2108.000000	83.258160 
2107.000000	83.258112 
2106.000000	83.258080 
2105.000000	83.258055 
2104.000000	83.258035 
2103.000000	83.258023 
2102.000000	83.258019 
2101.000000	83.258031 
2100.000000	83.258067 
2099.000000	83.258124 
2098.000000	83.258187 
2097.000000	83.258243 
2096.000000	83.258293 
2095.000000	83.258352 
2094.000000	83.258448 
2093.000000	83.258598 
2092.000000	83.258766 
2091.000000	83.258862 
2090.000000	83.258821 
2089.000000	83.258685 
2088.000000	83.258591 
2087.000000	83.258639 
2086.000000	83.258798 
2085.000000	83.258954 
2084.000000	83.259089 
2083.000000	83.259354 
2082.000000	83.259924 
2081.000000	83.260780 
2080.000000	83.261656 
2079.000000	83.262196 
2078.000000	83.262142 
2077.000000	83.261473 
2076.000000	83.260459 
2075.000000	83.259612 
2074.000000	83.259370 
2073.000000	83.259722 
2072.000000	83.260178 
2071.000000	83.260171 
2070.000000	83.259558 
2069.000000	83.258706 
2068.000000	83.258145 
2067.000000	83.258065 
2066.000000	83.258159 
2065.000000	83.257976 
2064.000000	83.257428 
2063.000000	83.256864 
2062.000000	83.256594 
2061.000000	83.256487 
2060.000000	83.256155 
2059.000000	83.255389 
2058.000000	83.254261 
2057.000000	83.252965 
2056.000000	83.251655 
2055.000000	83.250486 
2054.000000	83.249611 
2053.000000	83.249045 
2052.000000	83.248593 
2051.000000	83.247979 
2050.000000	83.247019 
2049.000000	83.245752 
2048.000000	83.244424 
2047.000000	83.243276 
2046.000000	83.242351 
2045.000000	83.241539 
2044.000000	83.240722 
2043.000000	83.239808 
2042.000000	83.238677 
2041.000000	83.237261 
2040.000000	83.235701 
2039.000000	83.234270 
2038.000000	83.233077 
2037.000000	83.231986 
2036.000000	83.230791 
2035.000000	83.229418 
2034.000000	83.227935 
2033.000000	83.226453 
2032.000000	83.225039 
2031.000000	83.223717 
2030.000000	83.222458 
2029.000000	83.221156 
2028.000000	83.219703 
2027.000000	83.218129 
2026.000000	83.216616 
2025.000000	83.215316 
2024.000000	83.214194 
2023.000000	83.213067 
2022.000000	83.211787 
2021.000000	83.210358 
2020.000000	83.208939 
2019.000000	83.207721 
2018.000000	83.206770 
2017.000000	83.205928 
2016.000000	83.204905 
2015.000000	83.203543 
2014.000000	83.201918 
2013.000000	83.200258 
2012.000000	83.198717 
2011.000000	83.197334 
2010.000000	83.196103 
2009.000000	83.194971 
2008.000000	83.193804 
2007.000000	83.192489 
2006.000000	83.191058 
2005.000000	83.189656 
2004.000000	83.188392 
2003.000000	83.187311 
2002.000000	83.186467 
2001.000000	83.185868 
2000.000000	83.185289 
1999.000000	83.184379 
1998.000000	83.183029 
1997.000000	83.181500 
1996.000000	83.180184 
1995.000000	83.179232 
1994.000000	83.178526 
1993.000000	83.177890 
1992.000000	83.177276 
1991.000000	83.176721 
1990.000000	83.176240 
1989.000000	83.175760 
1988.000000	83.175131 
1987.000000	83.174245 
1986.000000	83.173148 
1985.000000	83.172027 
1984.000000	83.171040 
1983.000000	83.170160 
1982.000000	83.169231 
1981.000000	83.168155 
1980.000000	83.167036 
1979.000000	83.166106 
1978.000000	83.165505 
1977.000000	83.165125 
1976.000000	83.164639 
1975.000000	83.163772 
1974.000000	83.162503 
1973.000000	83.161067 
1972.000000	83.159800 
1971.000000	83.158877 
1970.000000	83.158228 
1969.000000	83.157620 
1968.000000	83.156838 
1967.000000	83.155816 
1966.000000	83.154620 
1965.000000	83.153407 
1964.000000	83.152344 
1963.000000	83.151455 
1962.000000	83.150522 
1961.000000	83.149242 
1960.000000	83.147561 
1959.000000	83.145787 
1958.000000	83.144309 
1957.000000	83.143192 
1956.000000	83.142119 
1955.000000	83.140718 
1954.000000	83.138908 
1953.000000	83.136936 
1952.000000	83.135163 
1951.000000	83.133773 
1950.000000	83.132723 
1949.000000	83.131852 
1948.000000	83.130967 
1947.000000	83.129863 
1946.000000	83.128421 
1945.000000	83.126765 
1944.000000	83.125258 
1943.000000	83.124217 
1942.000000	83.123612 
1941.000000	83.123116 
1940.000000	83.122460 
1939.000000	83.121533 
1938.000000	83.120175 
1937.000000	83.118250 
1936.000000	83.115974 
1935.000000	83.113956 
1934.000000	83.112648 
1933.000000	83.111955 
1932.000000	83.111438 
1931.000000	83.110799 
1930.000000	83.110104 
1929.000000	83.109511 
1928.000000	83.108926 
1927.000000	83.108092 
1926.000000	83.107026 
1925.000000	83.106124 
1924.000000	83.105785 
1923.000000	83.105925 
1922.000000	83.105969 
1921.000000	83.105498 
1920.000000	83.104612 
1919.000000	83.103672 
1918.000000	83.102958 
1917.000000	83.102541 
1916.000000	83.102393 
1915.000000	83.102508 
1914.000000	83.102771 
1913.000000	83.102900 
1912.000000	83.102694 
1911.000000	83.102265 
1910.000000	83.101925 
1909.000000	83.101782 
1908.000000	83.101563 
1907.000000	83.100991 
1906.000000	83.100167 
1905.000000	83.099471 
1904.000000	83.099190 
1903.000000	83.099321 
1902.000000	83.099730 
1901.000000	83.100265 
1900.000000	83.100688 
1899.000000	83.100888 
1898.000000	83.101130 
1897.000000	83.101800 
1896.000000	83.102865 
1895.000000	83.103764 
1894.000000	83.104072 
1893.000000	83.104010 
1892.000000	83.104113 
1891.000000	83.104629 
1890.000000	83.105422 
1889.000000	83.106201 
1888.000000	83.106747 
1887.000000	83.107089 
1886.000000	83.107463 
1885.000000	83.108062 
1884.000000	83.108816 
1883.000000	83.109480 
1882.000000	83.110122 
1881.000000	83.111275 
1880.000000	83.113346 
1879.000000	83.116034 
1878.000000	83.118385 
1877.000000	83.119604 
1876.000000	83.119696 
1875.000000	83.119442 
1874.000000	83.119747 
1873.000000	83.120937 
1872.000000	83.122748 
1871.000000	83.124726 
1870.000000	83.126697 
1869.000000	83.128733 
1868.000000	83.130585 
1867.000000	83.131868 
1866.000000	83.132842 
1865.000000	83.134058 
1864.000000	83.135639 
1863.000000	83.137404 
1862.000000	83.139393 
1861.000000	83.141907 
1860.000000	83.144979 
1859.000000	83.148105 
1858.000000	83.150701 
1857.000000	83.152594 
1856.000000	83.154007 
1855.000000	83.155419 
1854.000000	83.157349 
1853.000000	83.159922 
1852.000000	83.162627 
1851.000000	83.164826 
1850.000000	83.166538 
1849.000000	83.168313 
1848.000000	83.170555 
1847.000000	83.173236 
1846.000000	83.176144 
1845.000000	83.179055 
1844.000000	83.181694 
1843.000000	83.183818 
1842.000000	83.185706 
1841.000000	83.187911 
1840.000000	83.190075 
1839.000000	83.191225 
1838.000000	83.191201 
1837.000000	83.190964 
1836.000000	83.191411 
1835.000000	83.192763 
1834.000000	83.195197 
1833.000000	83.199037 
1832.000000	83.204003 
1831.000000	83.208622 
1830.000000	83.210849 
1829.000000	83.209669 
1828.000000	83.206928 
1827.000000	83.206015 
1826.000000	83.208190 
1825.000000	83.211909 
1824.000000	83.214708 
1823.000000	83.215712 
1822.000000	83.216299 
1821.000000	83.218032 
1820.000000	83.221297 
1819.000000	83.225359 
1818.000000	83.228901 
1817.000000	83.230892 
1816.000000	83.231015 
1815.000000	83.229782 
1814.000000	83.229019 
1813.000000	83.231407 
1812.000000	83.238118 
1811.000000	83.245999 
1810.000000	83.249534 
1809.000000	83.247526 
1808.000000	83.244026 
1807.000000	83.242790 
1806.000000	83.244804 
1805.000000	83.250079 
1804.000000	83.258293 
1803.000000	83.267563 
1802.000000	83.275056 
1801.000000	83.279704 
1800.000000	83.282576 
1799.000000	83.285024 
1798.000000	83.288160 
1797.000000	83.292658 
1796.000000	83.297583 
1795.000000	83.301160 
1794.000000	83.303762 
1793.000000	83.309502 
1792.000000	83.322354 
1791.000000	83.338998 
1790.000000	83.352554 
1789.000000	83.361991 
1788.000000	83.370204 
1787.000000	83.378825 
1786.000000	83.387672 
1785.000000	83.396139 
1784.000000	83.403168 
1783.000000	83.408649 
1782.000000	83.415479 
1781.000000	83.426664 
1780.000000	83.440286 
1779.000000	83.451229 
1778.000000	83.458382 
1777.000000	83.465385 
1776.000000	83.474178 
1775.000000	83.482836 
1774.000000	83.489191 
1773.000000	83.494348 
1772.000000	83.501803 
1771.000000	83.512715 
1770.000000	83.526377 
1769.000000	83.543031 
1768.000000	83.561237 
1767.000000	83.576365 
1766.000000	83.585214 
1765.000000	83.590715 
1764.000000	83.597966 
1763.000000	83.608988 
1762.000000	83.621250 
1761.000000	83.629573 
1760.000000	83.632534 
1759.000000	83.634415 
1758.000000	83.639255 
1757.000000	83.646482 
1756.000000	83.651495 
1755.000000	83.651944 
1754.000000	83.650723 
1753.000000	83.650446 
1752.000000	83.651435 
1751.000000	83.655538 
1750.000000	83.664033 
1749.000000	83.673893 
1748.000000	83.681111 
1747.000000	83.683602 
1746.000000	83.682623 
1745.000000	83.681725 
1744.000000	83.683569 
1743.000000	83.687074 
1742.000000	83.687486 
1741.000000	83.681527 
1740.000000	83.670995 
1739.000000	83.659779 
1738.000000	83.649263 
1737.000000	83.640102 
1736.000000	83.631423 
1735.000000	83.619499 
1734.000000	83.605833 
1733.000000	83.594636 
1732.000000	83.586983 
1731.000000	83.586024 
1730.000000	83.589616 
1729.000000	83.590376 
1728.000000	83.584555 
1727.000000	83.575601 
1726.000000	83.567616 
1725.000000	83.560468 
1724.000000	83.552436 
1723.000000	83.542883 
1722.000000	83.531409 
1721.000000	83.518035 
1720.000000	83.502741 
1719.000000	83.484568 
1718.000000	83.465812 
1717.000000	83.454647 
1716.000000	83.454318 
1715.000000	83.457253 
1714.000000	83.455550 
1713.000000	83.448886 
1712.000000	83.442309 
1711.000000	83.439019 
1710.000000	83.437490 
1709.000000	83.435429 
1708.000000	83.433809 
1707.000000	83.434475 
1706.000000	83.437136 
1705.000000	83.440686 
1704.000000	83.445608 
1703.000000	83.453400 
1702.000000	83.460970 
1701.000000	83.463078 
1700.000000	83.463046 
1699.000000	83.464412 
1698.000000	83.468850 
1697.000000	83.483998 
1696.000000	83.507682 
1695.000000	83.525881 
1694.000000	83.531288 
1693.000000	83.532762 
1692.000000	83.539831 
1691.000000	83.554786 
1690.000000	83.576934 
1689.000000	83.603321 
1688.000000	83.627297 
1687.000000	83.643688 
1686.000000	83.651645 
1685.000000	83.659752 
1684.000000	83.681519 
1683.000000	83.709451 
1682.000000	83.732402 
1681.000000	83.755617 
1680.000000	83.778705 
1679.000000	83.796904 
1678.000000	83.810318 
1677.000000	83.824241 
1676.000000	83.840900 
1675.000000	83.858760 
1674.000000	83.876015 
1673.000000	83.893353 
1672.000000	83.912022 
1671.000000	83.929180 
1670.000000	83.942876 
1669.000000	83.956260 
1668.000000	83.972259 
1667.000000	83.990890 
1666.000000	84.010977 
1665.000000	84.030571 
1664.000000	84.047082 
1663.000000	84.058479 
1662.000000	84.065757 
1661.000000	84.072343 
1660.000000	84.079759 
1659.000000	84.086937 
1658.000000	84.093825 
1657.000000	84.101881 
1656.000000	84.110486 
1655.000000	84.112013 
1654.000000	84.102314 
1653.000000	84.094217 
1652.000000	84.094435 
1651.000000	84.094658 
1650.000000	84.095287 
1649.000000	84.095622 
1648.000000	84.094757 
1647.000000	84.092890 
1646.000000	84.092572 
1645.000000	84.093862 
1644.000000	84.097129 
1643.000000	84.100323 
1642.000000	84.099690 
1641.000000	84.094310 
1640.000000	84.088109 
1639.000000	84.086251 
1638.000000	84.088664 
1637.000000	84.089594 
1636.000000	84.086022 
1635.000000	84.081971 
1634.000000	84.081686 
1633.000000	84.084982 
1632.000000	84.090784 
1631.000000	84.098695 
1630.000000	84.107962 
1629.000000	84.117609 
1628.000000	84.126694 
1627.000000	84.134920 
1626.000000	84.142730 
1625.000000	84.149565 
1624.000000	84.153947 
1623.000000	84.156321 
1622.000000	84.158750 
1621.000000	84.162216 
1620.000000	84.166812 
1619.000000	84.172557 
1618.000000	84.179689 
1617.000000	84.189726 
1616.000000	84.202498 
1615.000000	84.215569 
1614.000000	84.228344 
1613.000000	84.239428 
1612.000000	84.245220 
1611.000000	84.245713 
1610.000000	84.247625 
1609.000000	84.256722 
1608.000000	84.270386 
1607.000000	84.283023 
1606.000000	84.293387 
1605.000000	84.302572 
1604.000000	84.309692 
1603.000000	84.314068 
1602.000000	84.317777 
1601.000000	84.322667 
1600.000000	84.328434 
1599.000000	84.334642 
1598.000000	84.341165 
1597.000000	84.345895 
1596.000000	84.345400 
1595.000000	84.339415 
1594.000000	84.332416 
1593.000000	84.328417 
1592.000000	84.326418 
1591.000000	84.323109 
1590.000000	84.317454 
1589.000000	84.310263 
1588.000000	84.301669 
1587.000000	84.291662 
1586.000000	84.281152 
1585.000000	84.270467 
1584.000000	84.258171 
1583.000000	84.243741 
1582.000000	84.230135 
1581.000000	84.220206 
1580.000000	84.213101 
1579.000000	84.205905 
1578.000000	84.194458 
1577.000000	84.173281 
1576.000000	84.142023 
1575.000000	84.110779 
1574.000000	84.089532 
1573.000000	84.078177 
1572.000000	84.069641 
1571.000000	84.056850 
1570.000000	84.039432 
1569.000000	84.021856 
1568.000000	84.005574 
1567.000000	83.990794 
1566.000000	83.977360 
1565.000000	83.963719 
1564.000000	83.950547 
1563.000000	83.941853 
1562.000000	83.939858 
1561.000000	83.935393 
1560.000000	83.912937 
1559.000000	83.884171 
1558.000000	83.868023 
1557.000000	83.859601 
1556.000000	83.857648 
1555.000000	83.858918 
1554.000000	83.859469 
1553.000000	83.855183 
1552.000000	83.847897 
1551.000000	83.842032 
1550.000000	83.838915 
1549.000000	83.835960 
1548.000000	83.832573 
1547.000000	83.832178 
1546.000000	83.837534 
1545.000000	83.849205 
1544.000000	83.866404 
1543.000000	83.888074 
1542.000000	83.912105 
1541.000000	83.932321 
1540.000000	83.936138 
1539.000000	83.916283 
1538.000000	83.883905 
1537.000000	83.851066 
1536.000000	83.816839 
1535.000000	83.774901 
1534.000000	83.725499 
1533.000000	83.680461 
1532.000000	83.646303 
1531.000000	83.618750 
1530.000000	83.594258 
1529.000000	83.573643 
1528.000000	83.557893 
1527.000000	83.544454 
1526.000000	83.529815 
1525.000000	83.514088 
1524.000000	83.499767 
1523.000000	83.486794 
1522.000000	83.474324 
1521.000000	83.462644 
1520.000000	83.449267 
1519.000000	83.433956 
1518.000000	83.422266 
1517.000000	83.417787 
1516.000000	83.416536 
1515.000000	83.411241 
1514.000000	83.400919 
1513.000000	83.388726 
1512.000000	83.378134 
1511.000000	83.370971 
1510.000000	83.365906 
1509.000000	83.360109 
1508.000000	83.355195 
1507.000000	83.356081 
1506.000000	83.352570 
1505.000000	83.337271 
1504.000000	83.320535 
1503.000000	83.309047 
1502.000000	83.304432 
1501.000000	83.304559 
1500.000000	83.306813 
1499.000000	83.309171 
1498.000000	83.308488 
1497.000000	83.303738 
1496.000000	83.298871 
1495.000000	83.295259 
1494.000000	83.289554 
1493.000000	83.280735 
1492.000000	83.272425 
1491.000000	83.272281 
1490.000000	83.285591 
1489.000000	83.306169 
1488.000000	83.321917 
1487.000000	83.326109 
1486.000000	83.319670 
1485.000000	83.308227 
1484.000000	83.298029 
1483.000000	83.294531 
1482.000000	83.299961 
1481.000000	83.310850 
1480.000000	83.321406 
1479.000000	83.330068 
1478.000000	83.340565 
1477.000000	83.356912 
1476.000000	83.378779 
1475.000000	83.401779 
1474.000000	83.425474 
1473.000000	83.456107 
1472.000000	83.493332 
1471.000000	83.526016 
1470.000000	83.549097 
1469.000000	83.567587 
1468.000000	83.586666 
1467.000000	83.607220 
1466.000000	83.626982 
1465.000000	83.642559 
1464.000000	83.649923 
1463.000000	83.648416 
1462.000000	83.641739 
1461.000000	83.634449 
1460.000000	83.630018 
1459.000000	83.628810 
1458.000000	83.623394 
1457.000000	83.597976 
1456.000000	83.547610 
1455.000000	83.490891 
1454.000000	83.447329 
1453.000000	83.419661 
1452.000000	83.401464 
1451.000000	83.387932 
1450.000000	83.381543 
1449.000000	83.387236 
1448.000000	83.404396 
1447.000000	83.422964 
1446.000000	83.432841 
1445.000000	83.432669 
1444.000000	83.426389 
1443.000000	83.418546 
1442.000000	83.412113 
1441.000000	83.407938 
1440.000000	83.406766 
1439.000000	83.410061 
1438.000000	83.416856 
1437.000000	83.422815 
1436.000000	83.422189 
1435.000000	83.413155 
1434.000000	83.401331 
1433.000000	83.393192 
1432.000000	83.389850 
1431.000000	83.388699 
1430.000000	83.385321 
1429.000000	83.375836 
1428.000000	83.361008 
1427.000000	83.345203 
1426.000000	83.331315 
1425.000000	83.317526 
1424.000000	83.300768 
1423.000000	83.281460 
1422.000000	83.260601 
1421.000000	83.235323 
1420.000000	83.202380 
1419.000000	83.165357 
1418.000000	83.127201 
1417.000000	83.084433 
1416.000000	83.036348 
1415.000000	82.985780 
1414.000000	82.934711 
1413.000000	82.883715 
1412.000000	82.834992 
1411.000000	82.792946 
1410.000000	82.758354 
1409.000000	82.727761 
1408.000000	82.700894 
1407.000000	82.683017 
1406.000000	82.679660 
1405.000000	82.691827 
1404.000000	82.716152 
1403.000000	82.747107 
1402.000000	82.779302 
1401.000000	82.810355 
1400.000000	82.840258 
1399.000000	82.863807 
1398.000000	82.863701 
1397.000000	82.820636 
1396.000000	82.734893 
1395.000000	82.643409 
1394.000000	82.601119 
1393.000000	82.628560 
1392.000000	82.699906 
1391.000000	82.774671 
1390.000000	82.826320 
1389.000000	82.848282 
1388.000000	82.846647 
1387.000000	82.831878 
1386.000000	82.813447 
1385.000000	82.797964 
1384.000000	82.789144 
1383.000000	82.787764 
1382.000000	82.792642 
1381.000000	82.802996 
1380.000000	82.819284 
1379.000000	82.841280 
1378.000000	82.866954 
1377.000000	82.894286 
1376.000000	82.923251 
1375.000000	82.954779 
1374.000000	82.987949 
1373.000000	83.020113 
1372.000000	83.050995 
1371.000000	83.083872 
1370.000000	83.121773 
1369.000000	83.163249 
1368.000000	83.203001 
1367.000000	83.237216 
1366.000000	83.266881 
1365.000000	83.296249 
1364.000000	83.328956 
1363.000000	83.364934 
1362.000000	83.399883 
1361.000000	83.428925 
1360.000000	83.450804 
1359.000000	83.467958 
1358.000000	83.484876 
1357.000000	83.506281 
1356.000000	83.533961 
1355.000000	83.564089 
1354.000000	83.589066 
1353.000000	83.604944 
1352.000000	83.614543 
1351.000000	83.622150 
1350.000000	83.630597 
1349.000000	83.639681 
1348.000000	83.646231 
1347.000000	83.648973 
1346.000000	83.649759 
1345.000000	83.650003 
1344.000000	83.649525 
1343.000000	83.649629 
1342.000000	83.653451 
1341.000000	83.661663 
1340.000000	83.670079 
1339.000000	83.674082 
1338.000000	83.673928 
1337.000000	83.673129 
1336.000000	83.673150 
1335.000000	83.672499 
1334.000000	83.670366 
1333.000000	83.668816 
1332.000000	83.670959 
1331.000000	83.678362 
1330.000000	83.689982 
1329.000000	83.702385 
1328.000000	83.711582 
1327.000000	83.716011 
1326.000000	83.717857 
1325.000000	83.720441 
1324.000000	83.726121 
1323.000000	83.736147 
1322.000000	83.749518 
1321.000000	83.762066 
1320.000000	83.769036 
1319.000000	83.769658 
1318.000000	83.767713 
1317.000000	83.767562 
1316.000000	83.771109 
1315.000000	83.778225 
1314.000000	83.787215 
1313.000000	83.794552 
1312.000000	83.797020 
1311.000000	83.795513 
1310.000000	83.794691 
1309.000000	83.797552 
1308.000000	83.801923 
1307.000000	83.803479 
1306.000000	83.801038 
1305.000000	83.797059 
1304.000000	83.794770 
1303.000000	83.796110 
1302.000000	83.800764 
1301.000000	83.805667 
1300.000000	83.806309 
1299.000000	83.800470 
1298.000000	83.790543 
1297.000000	83.781571 
1296.000000	83.777070 
1295.000000	83.777220 
1294.000000	83.779746 
1293.000000	83.781169 
1292.000000	83.778303 
1291.000000	83.770313 
1290.000000	83.759505 
1289.000000	83.749287 
1288.000000	83.741248 
1287.000000	83.734414 
1286.000000	83.726909 
1285.000000	83.717271 
1284.000000	83.704986 
1283.000000	83.691497 
1282.000000	83.679181 
1281.000000	83.668587 
1280.000000	83.657728 
1279.000000	83.643600 
1278.000000	83.624220 
1277.000000	83.600182 
1276.000000	83.574441 
1275.000000	83.550272 
1274.000000	83.529153 
1273.000000	83.510496 
1272.000000	83.493090 
1271.000000	83.475794 
1270.000000	83.456781 
1269.000000	83.433915 
1268.000000	83.407219 
1267.000000	83.379888 
1266.000000	83.354890 
1265.000000	83.330948 
1264.000000	83.303481 
1263.000000	83.269425 
1262.000000	83.230276 
1261.000000	83.190646 
1260.000000	83.154283 
1259.000000	83.120942 
1258.000000	83.086704 
1257.000000	83.048804 
1256.000000	83.010468 
1255.000000	82.978520 
1254.000000	82.954869 
1253.000000	82.933326 
1252.000000	82.907921 
1251.000000	82.882368 
1250.000000	82.867255 
1249.000000	82.868901 
1248.000000	82.884588 
1247.000000	82.906215 
1246.000000	82.922988 
1245.000000	82.922003 
1244.000000	82.895436 
1243.000000	82.853162 
1242.000000	82.822855 
1241.000000	82.827702 
1240.000000	82.864464 
1239.000000	82.905146 
1238.000000	82.922447 
1237.000000	82.911301 
1236.000000	82.884087 
1235.000000	82.853356 
1234.000000	82.823543 
1233.000000	82.795638 
1232.000000	82.771965 
1231.000000	82.754109 
1230.000000	82.740693 
1229.000000	82.730285 
1228.000000	82.724313 
1227.000000	82.724767 
1226.000000	82.730663 
1225.000000	82.738858 
1224.000000	82.747204 
1223.000000	82.755184 
1222.000000	82.762653 
1221.000000	82.769839 
1220.000000	82.777671 
1219.000000	82.786337 
1218.000000	82.793940 
1217.000000	82.798104 
1216.000000	82.798615 
1215.000000	82.797542 
1214.000000	82.797347 
1213.000000	82.799355 
1212.000000	82.802467 
1211.000000	82.802299 
1210.000000	82.793964 
1209.000000	82.778012 
1208.000000	82.761717 
1207.000000	82.751209 
1206.000000	82.743470 
1205.000000	82.729899 
1204.000000	82.707084 
1203.000000	82.680155 
1202.000000	82.655518 
1201.000000	82.634236 
1200.000000	82.613843 
1199.000000	82.592697 
1198.000000	82.570518 
1197.000000	82.547117 
1196.000000	82.521841 
1195.000000	82.494291 
1194.000000	82.465466 
1193.000000	82.437553 
1192.000000	82.412289 
1191.000000	82.388487 
1190.000000	82.361981 
1189.000000	82.330591 
1188.000000	82.298266 
1187.000000	82.271024 
1186.000000	82.249165 
1185.000000	82.227154 
1184.000000	82.201024 
1183.000000	82.171707 
1182.000000	82.140767 
1181.000000	82.107412 
1180.000000	82.071366 
1179.000000	82.034849 
1178.000000	81.999139 
1177.000000	81.961673 
1176.000000	81.918668 
1175.000000	81.868908 
1174.000000	81.814051 
1173.000000	81.757215 
1172.000000	81.701631 
1171.000000	81.647569 
1170.000000	81.589702 
1169.000000	81.521468 
1168.000000	81.444405 
1167.000000	81.370225 
1166.000000	81.311224 
1165.000000	81.271124 
1164.000000	81.246682 
1163.000000	81.234523 
1162.000000	81.234021 
1161.000000	81.246013 
1160.000000	81.270459 
1159.000000	81.302912 
1158.000000	81.332113 
1157.000000	81.344488 
1156.000000	81.333130 
1155.000000	81.301010 
1154.000000	81.255526 
1153.000000	81.202733 
1152.000000	81.147432 
1151.000000	81.094193 
1150.000000	81.044664 
1149.000000	80.996297 
1148.000000	80.946462 
1147.000000	80.895872 
1146.000000	80.846166 
1145.000000	80.796472 
1144.000000	80.744370 
1143.000000	80.688622 
1142.000000	80.630032 
1141.000000	80.571641 
1140.000000	80.518075 
1139.000000	80.471271 
1138.000000	80.426564 
1137.000000	80.377006 
1136.000000	80.321794 
1135.000000	80.265681 
1134.000000	80.209599 
1133.000000	80.147848 
1132.000000	80.076944 
1131.000000	80.001595 
1130.000000	79.928369 
1129.000000	79.857895 
1128.000000	79.786853 
1127.000000	79.713435 
1126.000000	79.637290 
1125.000000	79.557667 
1124.000000	79.474651 
1123.000000	79.389337 
1122.000000	79.300487 
1121.000000	79.204029 
1120.000000	79.097786 
1119.000000	78.983820 
1118.000000	78.865828 
1117.000000	78.748281 
1116.000000	78.637330 
1115.000000	78.535581 
1114.000000	78.434660 
1113.000000	78.320173 
1112.000000	78.186720 
1111.000000	78.042660 
1110.000000	77.897311 
1109.000000	77.751065 
1108.000000	77.602975 
1107.000000	77.457767 
1106.000000	77.319395 
1105.000000	77.185592 
1104.000000	77.052737 
1103.000000	76.920114 
1102.000000	76.787027 
1101.000000	76.651118 
1100.000000	76.513062 
1099.000000	76.376596 
1098.000000	76.242439 
1097.000000	76.108468 
1096.000000	75.975123 
1095.000000	75.843150 
1094.000000	75.703783 
1093.000000	75.540651 
1092.000000	75.346603 
1091.000000	75.133794 
1090.000000	74.923785 
1089.000000	74.731295 
1088.000000	74.558393 
1087.000000	74.397109 
1086.000000	74.234814 
1085.000000	74.064075 
1084.000000	73.890028 
1083.000000	73.722461 
1082.000000	73.560886 
1081.000000	73.396529 
1080.000000	73.230037 
1079.000000	73.076039 
1078.000000	72.946968 
1077.000000	72.843009 
1076.000000	72.760688 
1075.000000	72.699331 
1074.000000	72.654886 
1073.000000	72.618064 
1072.000000	72.580289 
1071.000000	72.528038 
1070.000000	72.430892 
1069.000000	72.258384 
1068.000000	72.023679 
1067.000000	71.797267 
1066.000000	71.656156 
1065.000000	71.621229 
1064.000000	71.650534 
1063.000000	71.678900 
1062.000000	71.653754 
1061.000000	71.546365 
1060.000000	71.357433 
1059.000000	71.123864 
1058.000000	70.904536 
1057.000000	70.742589 
1056.000000	70.640243 
1055.000000	70.568545 
1054.000000	70.496674 
1053.000000	70.413874 
1052.000000	70.330142 
1051.000000	70.261135 
1050.000000	70.213475 
1049.000000	70.183093 
1048.000000	70.163350 
1047.000000	70.150164 
1046.000000	70.141439 
1045.000000	70.137396 
1044.000000	70.141456 
1043.000000	70.156065 
1042.000000	70.176368 
1041.000000	70.190792 
1040.000000	70.189855 
1039.000000	70.176199 
1038.000000	70.168465 
1037.000000	70.192671 
1036.000000	70.261942 
1035.000000	70.361962 
1034.000000	70.461770 
1033.000000	70.539123 
1032.000000	70.585093 
1031.000000	70.586770 
1030.000000	70.530551 
1029.000000	70.436730 
1028.000000	70.370534 
1027.000000	70.390611 
1026.000000	70.489689 
1025.000000	70.604007 
1024.000000	70.679505 
1023.000000	70.710299 
1022.000000	70.716909 
1021.000000	70.714438 
1020.000000	70.709637 
1019.000000	70.708365 
1018.000000	70.711551 
1017.000000	70.714125 
1016.000000	70.715988 
1015.000000	70.724764 
1014.000000	70.743097 
1013.000000	70.764072 
1012.000000	70.783944 
1011.000000	70.808293 
1010.000000	70.840569 
1009.000000	70.875291 
1008.000000	70.907927 
1007.000000	70.941691 
1006.000000	70.979252 
1005.000000	71.016950 
1004.000000	71.052673 
1003.000000	71.091285 
1002.000000	71.137234 
1001.000000	71.189077 
1000.000000	71.244532 
999.000000	 71.302524 
998.000000	 71.357451 
997.000000	 71.401667 
996.000000	 71.438031 
995.000000	 71.480006 
994.000000	 71.534195 
993.000000	 71.592156 
992.000000	 71.644730 
991.000000	 71.694750 
990.000000	 71.749142 
989.000000	 71.808209 
988.000000	 71.870369 
987.000000	 71.938822 
986.000000	 72.015665 
985.000000	 72.096636 
984.000000	 72.177189 
983.000000	 72.257990 
982.000000	 72.342768 
981.000000	 72.434984 
980.000000	 72.538556 
979.000000	 72.656729 
978.000000	 72.785032 
977.000000	 72.911208 
976.000000	 73.027688 
975.000000	 73.140527 
974.000000	 73.263263 
973.000000	 73.405067 
972.000000	 73.564691 
971.000000	 73.730557 
970.000000	 73.887248 
969.000000	 74.028321 
968.000000	 74.162915 
967.000000	 74.304684 
966.000000	 74.455364 
965.000000	 74.604815 
964.000000	 74.744738 
963.000000	 74.874569 
962.000000	 74.996288 
961.000000	 75.113031 
960.000000	 75.232215 
959.000000	 75.359979 
958.000000	 75.490984 
957.000000	 75.612379 
956.000000	 75.719440 
955.000000	 75.819730 
954.000000	 75.921119 
953.000000	 76.023282 
952.000000	 76.121649 
951.000000	 76.211844 
950.000000	 76.289648 
949.000000	 76.354921 
948.000000	 76.416569 
947.000000	 76.484948 
946.000000	 76.557539 
945.000000	 76.620661 
944.000000	 76.666869 
943.000000	 76.702274 
942.000000	 76.735782 
941.000000	 76.770467 
940.000000	 76.807964 
939.000000	 76.851002 
938.000000	 76.896705 
937.000000	 76.936021 
936.000000	 76.965148 
935.000000	 76.990750 
934.000000	 77.019953 
933.000000	 77.052280 
932.000000	 77.085094 
931.000000	 77.119321 
930.000000	 77.155340 
929.000000	 77.190282 
928.000000	 77.224382 
927.000000	 77.263677 
926.000000	 77.311204 
925.000000	 77.360541 
924.000000	 77.402352 
923.000000	 77.432901 
922.000000	 77.453511 
921.000000	 77.467428 
920.000000	 77.480331 
919.000000	 77.497948 
918.000000	 77.519030 
917.000000	 77.535388 
916.000000	 77.542137 
915.000000	 77.543313 
914.000000	 77.545542 
913.000000	 77.552862 
912.000000	 77.570601 
911.000000	 77.605973 
910.000000	 77.658701 
909.000000	 77.717300 
908.000000	 77.771549 
907.000000	 77.824947 
906.000000	 77.889187 
905.000000	 77.969873 
904.000000	 78.062832 
903.000000	 78.161174 
902.000000	 78.260452 
901.000000	 78.358082 
900.000000	 78.452628 
899.000000	 78.545397 
898.000000	 78.641236 
897.000000	 78.745072 
896.000000	 78.854767 
895.000000	 78.957630 
894.000000	 79.039868 
893.000000	 79.104097 
892.000000	 79.172952 
891.000000	 79.268325 
890.000000	 79.388219 
889.000000	 79.509140 
888.000000	 79.609091 
887.000000	 79.682036 
886.000000	 79.733841 
885.000000	 79.775135 
884.000000	 79.818453 
883.000000	 79.871830 
882.000000	 79.932514 
881.000000	 79.996049 
880.000000	 80.072929 
879.000000	 80.183605 
878.000000	 80.331752 
877.000000	 80.493760 
876.000000	 80.641994 
875.000000	 80.769404 
874.000000	 80.884616 
873.000000	 80.994362 
872.000000	 81.101366 
871.000000	 81.211383 
870.000000	 81.329830 
869.000000	 81.454028 
868.000000	 81.576847 
867.000000	 81.695392 
866.000000	 81.810398 
865.000000	 81.921618 
864.000000	 82.030562 
863.000000	 82.143299 
862.000000	 82.262089 
861.000000	 82.377305 
860.000000	 82.477203 
859.000000	 82.564993 
858.000000	 82.657557 
857.000000	 82.765950 
856.000000	 82.883826 
855.000000	 82.996055 
854.000000	 83.092012 
853.000000	 83.169389 
852.000000	 83.232378 
851.000000	 83.289756 
850.000000	 83.349656 
849.000000	 83.412195 
848.000000	 83.469735 
847.000000	 83.515071 
846.000000	 83.545785 
845.000000	 83.561848 
844.000000	 83.565284 
843.000000	 83.562134 
842.000000	 83.556989 
841.000000	 83.543770 
840.000000	 83.510107 
839.000000	 83.454558 
838.000000	 83.392260 
837.000000	 83.338863 
836.000000	 83.295323 
835.000000	 83.253448 
834.000000	 83.209826 
833.000000	 83.168310 
832.000000	 83.134159 
831.000000	 83.112496 
830.000000	 83.108460 
829.000000	 83.121268 
828.000000	 83.139841 
827.000000	 83.151548 
826.000000	 83.155827 
825.000000	 83.163826 
824.000000	 83.184343 
823.000000	 83.214743 
822.000000	 83.244732 
821.000000	 83.263664 
820.000000	 83.265061 
819.000000	 83.249848 
818.000000	 83.225482 
817.000000	 83.197576 
816.000000	 83.162540 
815.000000	 83.111947 
814.000000	 83.042571 
813.000000	 82.956906 
812.000000	 82.854223 
811.000000	 82.727046 
810.000000	 82.567904 
809.000000	 82.374605 
808.000000	 82.147522 
807.000000	 81.887423 
806.000000	 81.599973 
805.000000	 81.299042 
804.000000	 81.001332 
803.000000	 80.718603 
802.000000	 80.458041 
801.000000	 80.229425 
800.000000	 80.046600 
799.000000	 79.918478 
798.000000	 79.842530 
797.000000	 79.812086 
796.000000	 79.825877 
795.000000	 79.882271 
794.000000	 79.966841 
793.000000	 80.056664 
792.000000	 80.139007 
791.000000	 80.217228 
790.000000	 80.295152 
789.000000	 80.362677 
788.000000	 80.400829 
787.000000	 80.396510 
786.000000	 80.349506 
785.000000	 80.269630 
784.000000	 80.171111 
783.000000	 80.066656 
782.000000	 79.962941 
781.000000	 79.863898 
780.000000	 79.779789 
779.000000	 79.728075 
778.000000	 79.722084 
777.000000	 79.763389 
776.000000	 79.847418 
775.000000	 79.969257 
774.000000	 80.119211 
773.000000	 80.279719 
772.000000	 80.434241 
771.000000	 80.576286 
770.000000	 80.705145 
769.000000	 80.817973 
768.000000	 80.913375 
767.000000	 80.998694 
766.000000	 81.083921 
765.000000	 81.168811 
764.000000	 81.244876 
763.000000	 81.310670 
762.000000	 81.375528 
761.000000	 81.444953 
760.000000	 81.511300 
759.000000	 81.565266 
758.000000	 81.610768 
757.000000	 81.661653 
756.000000	 81.726518 
755.000000	 81.801612 
754.000000	 81.876220 
753.000000	 81.941196 
752.000000	 81.995195 
751.000000	 82.046126 
750.000000	 82.103765 
749.000000	 82.168803 
748.000000	 82.233630 
747.000000	 82.296079 
746.000000	 82.365177 
745.000000	 82.447381 
744.000000	 82.534892 
743.000000	 82.618214 
742.000000	 82.704604 
741.000000	 82.809382 
740.000000	 82.928986 
739.000000	 83.036930 
738.000000	 83.112024 
737.000000	 83.160638 
736.000000	 83.205190 
735.000000	 83.258980 
734.000000	 83.319154 
733.000000	 83.377434 
732.000000	 83.428110 
731.000000	 83.467742 
730.000000	 83.494604 
729.000000	 83.509128 
728.000000	 83.516932 
727.000000	 83.528799 
726.000000	 83.550105 
725.000000	 83.573230 
724.000000	 83.586368 
723.000000	 83.589781 
722.000000	 83.597602 
721.000000	 83.620262 
720.000000	 83.650306 
719.000000	 83.669772 
718.000000	 83.668021 
717.000000	 83.649407 
716.000000	 83.627404 
715.000000	 83.616145 
714.000000	 83.622064 
713.000000	 83.635488 
712.000000	 83.634483 
711.000000	 83.602431 
710.000000	 83.542107 
709.000000	 83.471615 
708.000000	 83.407685 
707.000000	 83.361795 
706.000000	 83.335942 
705.000000	 83.314315 
704.000000	 83.270017 
703.000000	 83.186111 
702.000000	 83.070797 
701.000000	 82.943996 
700.000000	 82.809651 
699.000000	 82.656943 
698.000000	 82.483824 
697.000000	 82.311331 
696.000000	 82.175646 
695.000000	 82.106056 
694.000000	 82.115195 
693.000000	 82.195333 
692.000000	 82.315565 
691.000000	 82.440158 
690.000000	 82.551841 
689.000000	 82.653022 
688.000000	 82.744792 
687.000000	 82.815615 
686.000000	 82.863038 
685.000000	 82.906012 
684.000000	 82.961754 
683.000000	 83.028256 
682.000000	 83.094004 
681.000000	 83.151477 
680.000000	 83.195481 
679.000000	 83.227628 
678.000000	 83.264777 
677.000000	 83.317742 
676.000000	 83.375770 
675.000000	 83.424340 
674.000000	 83.470181 
673.000000	 83.532818 
672.000000	 83.625555 
671.000000	 83.754397 
670.000000	 83.929461 
669.000000	 84.140075 
668.000000	 84.269856 
667.000000	 84.216426 
666.000000	 84.082067 
665.000000	 83.975397 
664.000000	 83.918590 
663.000000	 83.916771 
662.000000	 83.957716 
661.000000	 84.015774 
660.000000	 84.066023 
659.000000	 84.104801 
658.000000	 84.134989 
657.000000	 84.150584 
656.000000	 84.154031 
655.000000	 84.169407 
654.000000	 84.210001 
653.000000	 84.258345 
652.000000	 84.296947 
651.000000	 84.331167 
650.000000	 84.370649 

