PE IR                   SPECTRUM    ASCII       PEDS        1.60        
  -1
~SP.SP
22/12/06
11:58:26.00
23/01/09
15:35:51.00
Administrator

650.000000
4









FRONTIER FT-IR,CPU32 MAIN 00.09.9951 07-SEPTEMBER-2011 11:49:41
MIR TGS
MIR
OPTKBR
90694
0.200000

4.000000
STRONG
RATIO
SPECTRUM
MAGNITUDE
MIRACLE ATR
DOUBLE

COMBINED


0


#HDR
-1
-1
#GR
CM-1
%T
0.00002384185791015625
0.0
4000.000000
-1.000000
3351
8
95.901092
60.708565
#DATA
4000.000000	95.884434 
3999.000000	95.883364 
3998.000000	95.882641 
3997.000000	95.883096 
3996.000000	95.885537 
3995.000000	95.889344 
3994.000000	95.892243 
3993.000000	95.892169 
3992.000000	95.888958 
3991.000000	95.884744 
3990.000000	95.882435 
3989.000000	95.883234 
3988.000000	95.886028 
3987.000000	95.888779 
3986.000000	95.890303 
3985.000000	95.890530 
3984.000000	95.889607 
3983.000000	95.887465 
3982.000000	95.884325 
3981.000000	95.881043 
3980.000000	95.878656 
3979.000000	95.877675 
3978.000000	95.877833 
3977.000000	95.878240 
3976.000000	95.877731 
3975.000000	95.875496 
3974.000000	95.871842 
3973.000000	95.868349 
3972.000000	95.866856 
3971.000000	95.868134 
3970.000000	95.871636 
3969.000000	95.876196 
3968.000000	95.880793 
3967.000000	95.884655 
3966.000000	95.887019 
3965.000000	95.887178 
3964.000000	95.884944 
3963.000000	95.881059 
3962.000000	95.877045 
3961.000000	95.874410 
3960.000000	95.873756 
3959.000000	95.874656 
3958.000000	95.876332 
3957.000000	95.878243 
3956.000000	95.880093 
3955.000000	95.881589 
3954.000000	95.882572 
3953.000000	95.883259 
3952.000000	95.884032 
3951.000000	95.884930 
3950.000000	95.885492 
3949.000000	95.885206 
3948.000000	95.884016 
3947.000000	95.882318 
3946.000000	95.880598 
3945.000000	95.879134 
3944.000000	95.878009 
3943.000000	95.877260 
3942.000000	95.876819 
3941.000000	95.876401 
3940.000000	95.875607 
3939.000000	95.874196 
3938.000000	95.872313 
3937.000000	95.870340 
3936.000000	95.868683 
3935.000000	95.867737 
3934.000000	95.867946 
3933.000000	95.869542 
3932.000000	95.872016 
3931.000000	95.874223 
3930.000000	95.875253 
3929.000000	95.874981 
3928.000000	95.873708 
3927.000000	95.871528 
3926.000000	95.868469 
3925.000000	95.865322 
3924.000000	95.863598 
3923.000000	95.863959 
3922.000000	95.865176 
3921.000000	95.865403 
3920.000000	95.864369 
3919.000000	95.863591 
3918.000000	95.864544 
3917.000000	95.867080 
3916.000000	95.869738 
3915.000000	95.871091 
3914.000000	95.870650 
3913.000000	95.868946 
3912.000000	95.867067 
3911.000000	95.865395 
3910.000000	95.863158 
3909.000000	95.859381 
3908.000000	95.854473 
3907.000000	95.850259 
3906.000000	95.848290 
3905.000000	95.848059 
3904.000000	95.847301 
3903.000000	95.844616 
3902.000000	95.841248 
3901.000000	95.839688 
3900.000000	95.841160 
3899.000000	95.844790 
3898.000000	95.848449 
3897.000000	95.850253 
3896.000000	95.849583 
3895.000000	95.847217 
3894.000000	95.844607 
3893.000000	95.842434 
3892.000000	95.840219 
3891.000000	95.837429 
3890.000000	95.834962 
3889.000000	95.833756 
3888.000000	95.833269 
3887.000000	95.832446 
3886.000000	95.830953 
3885.000000	95.829245 
3884.000000	95.828213 
3883.000000	95.828214 
3882.000000	95.829690 
3881.000000	95.833530 
3880.000000	95.839082 
3879.000000	95.843920 
3878.000000	95.846302 
3877.000000	95.846311 
3876.000000	95.845466 
3875.000000	95.844991 
3874.000000	95.844579 
3873.000000	95.843352 
3872.000000	95.840818 
3871.000000	95.837255 
3870.000000	95.833924 
3869.000000	95.832490 
3868.000000	95.833489 
3867.000000	95.835076 
3866.000000	95.835090 
3865.000000	95.833837 
3864.000000	95.833224 
3863.000000	95.834172 
3862.000000	95.835994 
3861.000000	95.837494 
3860.000000	95.838140 
3859.000000	95.838014 
3858.000000	95.837885 
3857.000000	95.838870 
3856.000000	95.841615 
3855.000000	95.845244 
3854.000000	95.847272 
3853.000000	95.846580 
3852.000000	95.845789 
3851.000000	95.846769 
3850.000000	95.848365 
3849.000000	95.850128 
3848.000000	95.852785 
3847.000000	95.856048 
3846.000000	95.858312 
3845.000000	95.858336 
3844.000000	95.856461 
3843.000000	95.854217 
3842.000000	95.852978 
3841.000000	95.852891 
3840.000000	95.853385 
3839.000000	95.854073 
3838.000000	95.854965 
3837.000000	95.855891 
3836.000000	95.856423 
3835.000000	95.856287 
3834.000000	95.855716 
3833.000000	95.855233 
3832.000000	95.855190 
3831.000000	95.855602 
3830.000000	95.856283 
3829.000000	95.856888 
3828.000000	95.856939 
3827.000000	95.855964 
3826.000000	95.854004 
3825.000000	95.851852 
3824.000000	95.850473 
3823.000000	95.850203 
3822.000000	95.850390 
3821.000000	95.849744 
3820.000000	95.848461 
3819.000000	95.848144 
3818.000000	95.849391 
3817.000000	95.851677 
3816.000000	95.853825 
3815.000000	95.854880 
3814.000000	95.854883 
3813.000000	95.854022 
3812.000000	95.852596 
3811.000000	95.851584 
3810.000000	95.851788 
3809.000000	95.852910 
3808.000000	95.853684 
3807.000000	95.853035 
3806.000000	95.851322 
3805.000000	95.849777 
3804.000000	95.848752 
3803.000000	95.847680 
3802.000000	95.845758 
3801.000000	95.842479 
3800.000000	95.838803 
3799.000000	95.836116 
3798.000000	95.834968 
3797.000000	95.835710 
3796.000000	95.838093 
3795.000000	95.840838 
3794.000000	95.842376 
3793.000000	95.841931 
3792.000000	95.839835 
3791.000000	95.837202 
3790.000000	95.835137 
3789.000000	95.834210 
3788.000000	95.834468 
3787.000000	95.835510 
3786.000000	95.836548 
3785.000000	95.836888 
3784.000000	95.836624 
3783.000000	95.836629 
3782.000000	95.837635 
3781.000000	95.839444 
3780.000000	95.841045 
3779.000000	95.841461 
3778.000000	95.840642 
3777.000000	95.839132 
3776.000000	95.837238 
3775.000000	95.834978 
3774.000000	95.832696 
3773.000000	95.831151 
3772.000000	95.831030 
3771.000000	95.832355 
3770.000000	95.834379 
3769.000000	95.836197 
3768.000000	95.837358 
3767.000000	95.837563 
3766.000000	95.836622 
3765.000000	95.834709 
3764.000000	95.832143 
3763.000000	95.828669 
3762.000000	95.823587 
3761.000000	95.817723 
3760.000000	95.814223 
3759.000000	95.815344 
3758.000000	95.819765 
3757.000000	95.824280 
3756.000000	95.827189 
3755.000000	95.828187 
3754.000000	95.827171 
3753.000000	95.825387 
3752.000000	95.826103 
3751.000000	95.830463 
3750.000000	95.834003 
3749.000000	95.832612 
3748.000000	95.827908 
3747.000000	95.823569 
3746.000000	95.821629 
3745.000000	95.820012 
3744.000000	95.813347 
3743.000000	95.803099 
3742.000000	95.793636 
3741.000000	95.784451 
3740.000000	95.778472 
3739.000000	95.779617 
3738.000000	95.783848 
3737.000000	95.782542 
3736.000000	95.775206 
3735.000000	95.772195 
3734.000000	95.780403 
3733.000000	95.793522 
3732.000000	95.800897 
3731.000000	95.798769 
3730.000000	95.788764 
3729.000000	95.772364 
3728.000000	95.751734 
3727.000000	95.732494 
3726.000000	95.720791 
3725.000000	95.717409 
3724.000000	95.716221 
3723.000000	95.710722 
3722.000000	95.700517 
3721.000000	95.690205 
3720.000000	95.683729 
3719.000000	95.680105 
3718.000000	95.674774 
3717.000000	95.664319 
3716.000000	95.649253 
3715.000000	95.631629 
3714.000000	95.612491 
3713.000000	95.592201 
3712.000000	95.571105 
3711.000000	95.549331 
3710.000000	95.526943 
3709.000000	95.504155 
3708.000000	95.482107 
3707.000000	95.462754 
3706.000000	95.446785 
3705.000000	95.431611 
3704.000000	95.412112 
3703.000000	95.384466 
3702.000000	95.349746 
3701.000000	95.314020 
3700.000000	95.283779 
3699.000000	95.260858 
3698.000000	95.242101 
3697.000000	95.223650 
3696.000000	95.204607 
3695.000000	95.186636 
3694.000000	95.171678 
3693.000000	95.161020 
3692.000000	95.154787 
3691.000000	95.150063 
3690.000000	95.141176 
3689.000000	95.124723 
3688.000000	95.104631 
3687.000000	95.088046 
3686.000000	95.076731 
3685.000000	95.066965 
3684.000000	95.055611 
3683.000000	95.041763 
3682.000000	95.023946 
3681.000000	94.999544 
3680.000000	94.968033 
3679.000000	94.933824 
3678.000000	94.902537 
3677.000000	94.875679 
3676.000000	94.850276 
3675.000000	94.825119 
3674.000000	94.804699 
3673.000000	94.789457 
3672.000000	94.771419 
3671.000000	94.743631 
3670.000000	94.705562 
3669.000000	94.664595 
3668.000000	94.630885 
3667.000000	94.606667 
3666.000000	94.586485 
3665.000000	94.563903 
3664.000000	94.535997 
3663.000000	94.504908 
3662.000000	94.475433 
3661.000000	94.450643 
3660.000000	94.430356 
3659.000000	94.413224 
3658.000000	94.398292 
3657.000000	94.384239 
3656.000000	94.367900 
3655.000000	94.346468 
3654.000000	94.318088 
3653.000000	94.281850 
3652.000000	94.241351 
3651.000000	94.205254 
3650.000000	94.180595 
3649.000000	94.167070 
3648.000000	94.159800 
3647.000000	94.154665 
3646.000000	94.149870 
3645.000000	94.144510 
3644.000000	94.137891 
3643.000000	94.128957 
3642.000000	94.115695 
3641.000000	94.095746 
3640.000000	94.068874 
3639.000000	94.038552 
3638.000000	94.010518 
3637.000000	93.988793 
3636.000000	93.972381 
3635.000000	93.956443 
3634.000000	93.937139 
3633.000000	93.915327 
3632.000000	93.895059 
3631.000000	93.880190 
3630.000000	93.871431 
3629.000000	93.863000 
3628.000000	93.849000 
3627.000000	93.833071 
3626.000000	93.820619 
3625.000000	93.813295 
3624.000000	93.811024 
3623.000000	93.811714 
3622.000000	93.814143 
3621.000000	93.821563 
3620.000000	93.838923 
3619.000000	93.865415 
3618.000000	93.894099 
3617.000000	93.919968 
3616.000000	93.943343 
3615.000000	93.966435 
3614.000000	93.990134 
3613.000000	94.014592 
3612.000000	94.041520 
3611.000000	94.073456 
3610.000000	94.110499 
3609.000000	94.149112 
3608.000000	94.184055 
3607.000000	94.211991 
3606.000000	94.232882 
3605.000000	94.248285 
3604.000000	94.260108 
3603.000000	94.270774 
3602.000000	94.283297 
3601.000000	94.300202 
3600.000000	94.320957 
3599.000000	94.340701 
3598.000000	94.353192 
3597.000000	94.356997 
3596.000000	94.356896 
3595.000000	94.358813 
3594.000000	94.364482 
3593.000000	94.372070 
3592.000000	94.380096 
3591.000000	94.389307 
3590.000000	94.400899 
3589.000000	94.413994 
3588.000000	94.425082 
3587.000000	94.430784 
3586.000000	94.430974 
3585.000000	94.427917 
3584.000000	94.424036 
3583.000000	94.421282 
3582.000000	94.420382 
3581.000000	94.420429 
3580.000000	94.419938 
3579.000000	94.418665 
3578.000000	94.417578 
3577.000000	94.417048 
3576.000000	94.415162 
3575.000000	94.408634 
3574.000000	94.396126 
3573.000000	94.380298 
3572.000000	94.366029 
3571.000000	94.356609 
3570.000000	94.352113 
3569.000000	94.350499 
3568.000000	94.349673 
3567.000000	94.348506 
3566.000000	94.347206 
3565.000000	94.347290 
3564.000000	94.350299 
3563.000000	94.355707 
3562.000000	94.359865 
3561.000000	94.358220 
3560.000000	94.349808 
3559.000000	94.338737 
3558.000000	94.330171 
3557.000000	94.325239 
3556.000000	94.321122 
3555.000000	94.315164 
3554.000000	94.307611 
3553.000000	94.300195 
3552.000000	94.293543 
3551.000000	94.287156 
3550.000000	94.281354 
3549.000000	94.277582 
3548.000000	94.276594 
3547.000000	94.277176 
3546.000000	94.277537 
3545.000000	94.277541 
3544.000000	94.278137 
3543.000000	94.278879 
3542.000000	94.277715 
3541.000000	94.273408 
3540.000000	94.267125 
3539.000000	94.261352 
3538.000000	94.257652 
3537.000000	94.255692 
3536.000000	94.254057 
3535.000000	94.251573 
3534.000000	94.248003 
3533.000000	94.243758 
3532.000000	94.239320 
3531.000000	94.234949 
3530.000000	94.230743 
3529.000000	94.226855 
3528.000000	94.223428 
3527.000000	94.220360 
3526.000000	94.217311 
3525.000000	94.213984 
3524.000000	94.210349 
3523.000000	94.206554 
3522.000000	94.202767 
3521.000000	94.199106 
3520.000000	94.195627 
3519.000000	94.192289 
3518.000000	94.188961 
3517.000000	94.185534 
3516.000000	94.182028 
3515.000000	94.178529 
3514.000000	94.175042 
3513.000000	94.171454 
3512.000000	94.167674 
3511.000000	94.163747 
3510.000000	94.159816 
3509.000000	94.155998 
3508.000000	94.152290 
3507.000000	94.148602 
3506.000000	94.144818 
3505.000000	94.140879 
3504.000000	94.136810 
3503.000000	94.132700 
3502.000000	94.128616 
3501.000000	94.124539 
3500.000000	94.120424 
3499.000000	94.116281 
3498.000000	94.112171 
3497.000000	94.108145 
3496.000000	94.104201 
3495.000000	94.100255 
3494.000000	94.096154 
3493.000000	94.091802 
3492.000000	94.087259 
3491.000000	94.082765 
3490.000000	94.078552 
3489.000000	94.074672 
3488.000000	94.070930 
3487.000000	94.067006 
3486.000000	94.062702 
3485.000000	94.058039 
3484.000000	94.053201 
3483.000000	94.048384 
3482.000000	94.043686 
3481.000000	94.039091 
3480.000000	94.034511 
3479.000000	94.029826 
3478.000000	94.024918 
3477.000000	94.019706 
3476.000000	94.014211 
3475.000000	94.008607 
3474.000000	94.003168 
3473.000000	93.998085 
3472.000000	93.993280 
3471.000000	93.988389 
3470.000000	93.983052 
3469.000000	93.977245 
3468.000000	93.971364 
3467.000000	93.965912 
3466.000000	93.961036 
3465.000000	93.956359 
3464.000000	93.951273 
3463.000000	93.945438 
3462.000000	93.939041 
3461.000000	93.932677 
3460.000000	93.926930 
3459.000000	93.921975 
3458.000000	93.917469 
3457.000000	93.912799 
3456.000000	93.907533 
3455.000000	93.901655 
3454.000000	93.895439 
3453.000000	93.889200 
3452.000000	93.883113 
3451.000000	93.877144 
3450.000000	93.871082 
3449.000000	93.864845 
3448.000000	93.858905 
3447.000000	93.854191 
3446.000000	93.851178 
3445.000000	93.849031 
3444.000000	93.845897 
3443.000000	93.840222 
3442.000000	93.831854 
3441.000000	93.822233 
3440.000000	93.813372 
3439.000000	93.806182 
3438.000000	93.799753 
3437.000000	93.792432 
3436.000000	93.783922 
3435.000000	93.776015 
3434.000000	93.770845 
3433.000000	93.768800 
3432.000000	93.768440 
3431.000000	93.768059 
3430.000000	93.766799 
3429.000000	93.764415 
3428.000000	93.760804 
3427.000000	93.756229 
3426.000000	93.751625 
3425.000000	93.748044 
3424.000000	93.745622 
3423.000000	93.743158 
3422.000000	93.739002 
3421.000000	93.732640 
3420.000000	93.725490 
3419.000000	93.719893 
3418.000000	93.716984 
3417.000000	93.715602 
3416.000000	93.713250 
3415.000000	93.708271 
3414.000000	93.701211 
3413.000000	93.694302 
3412.000000	93.689642 
3411.000000	93.687701 
3410.000000	93.687327 
3409.000000	93.687029 
3408.000000	93.686381 
3407.000000	93.686222 
3406.000000	93.687558 
3405.000000	93.690293 
3404.000000	93.692858 
3403.000000	93.693117 
3402.000000	93.689999 
3401.000000	93.684657 
3400.000000	93.680036 
3399.000000	93.678688 
3398.000000	93.680737 
3397.000000	93.683958 
3396.000000	93.685783 
3395.000000	93.685399 
3394.000000	93.683881 
3393.000000	93.682829 
3392.000000	93.683109 
3391.000000	93.684458 
3390.000000	93.685747 
3389.000000	93.685605 
3388.000000	93.683411 
3387.000000	93.680064 
3386.000000	93.677575 
3385.000000	93.677404 
3384.000000	93.679270 
3383.000000	93.681727 
3382.000000	93.683838 
3381.000000	93.685976 
3380.000000	93.688855 
3379.000000	93.692256 
3378.000000	93.695035 
3377.000000	93.696324 
3376.000000	93.696453 
3375.000000	93.696677 
3374.000000	93.698116 
3373.000000	93.701006 
3372.000000	93.704745 
3371.000000	93.708410 
3370.000000	93.711256 
3369.000000	93.712949 
3368.000000	93.713617 
3367.000000	93.713834 
3366.000000	93.714402 
3365.000000	93.715931 
3364.000000	93.718570 
3363.000000	93.722115 
3362.000000	93.726224 
3361.000000	93.730483 
3360.000000	93.734418 
3359.000000	93.737708 
3358.000000	93.740488 
3357.000000	93.743236 
3356.000000	93.746270 
3355.000000	93.749362 
3354.000000	93.752003 
3353.000000	93.753989 
3352.000000	93.755673 
3351.000000	93.757729 
3350.000000	93.760594 
3349.000000	93.764199 
3348.000000	93.768039 
3347.000000	93.771580 
3346.000000	93.774722 
3345.000000	93.777765 
3344.000000	93.781024 
3343.000000	93.784496 
3342.000000	93.787920 
3341.000000	93.791089 
3340.000000	93.794027 
3339.000000	93.796951 
3338.000000	93.800092 
3337.000000	93.803549 
3336.000000	93.807253 
3335.000000	93.810972 
3334.000000	93.814421 
3333.000000	93.817484 
3332.000000	93.820311 
3331.000000	93.823257 
3330.000000	93.826574 
3329.000000	93.830224 
3328.000000	93.833941 
3327.000000	93.837450 
3326.000000	93.840679 
3325.000000	93.843766 
3324.000000	93.846919 
3323.000000	93.850259 
3322.000000	93.853760 
3321.000000	93.857282 
3320.000000	93.860680 
3319.000000	93.863906 
3318.000000	93.867009 
3317.000000	93.870038 
3316.000000	93.872957 
3315.000000	93.875669 
3314.000000	93.878079 
3313.000000	93.880120 
3312.000000	93.881806 
3311.000000	93.883396 
3310.000000	93.885483 
3309.000000	93.888612 
3308.000000	93.892771 
3307.000000	93.897242 
3306.000000	93.901176 
3305.000000	93.904421 
3304.000000	93.907520 
3303.000000	93.910994 
3302.000000	93.914728 
3301.000000	93.918174 
3300.000000	93.921043 
3299.000000	93.923600 
3298.000000	93.926342 
3297.000000	93.929566 
3296.000000	93.933303 
3295.000000	93.937437 
3294.000000	93.941641 
3293.000000	93.945333 
3292.000000	93.948028 
3291.000000	93.949803 
3290.000000	93.951468 
3289.000000	93.953960 
3288.000000	93.957578 
3287.000000	93.961847 
3286.000000	93.965904 
3285.000000	93.969213 
3284.000000	93.971807 
3283.000000	93.974107 
3282.000000	93.976613 
3281.000000	93.979658 
3280.000000	93.983219 
3279.000000	93.986913 
3278.000000	93.990354 
3277.000000	93.993606 
3276.000000	93.997171 
3275.000000	94.001439 
3274.000000	94.006245 
3273.000000	94.011039 
3272.000000	94.015426 
3271.000000	94.019414 
3270.000000	94.023216 
3269.000000	94.027014 
3268.000000	94.030931 
3267.000000	94.035060 
3266.000000	94.039374 
3265.000000	94.043673 
3264.000000	94.047717 
3263.000000	94.051451 
3262.000000	94.055138 
3261.000000	94.059181 
3260.000000	94.063689 
3259.000000	94.068201 
3258.000000	94.071970 
3257.000000	94.074708 
3256.000000	94.077015 
3255.000000	94.079900 
3254.000000	94.083851 
3253.000000	94.088499 
3252.000000	94.093118 
3251.000000	94.097248 
3250.000000	94.100813 
3249.000000	94.104041 
3248.000000	94.107465 
3247.000000	94.111614 
3246.000000	94.116321 
3245.000000	94.120512 
3244.000000	94.123199 
3243.000000	94.124599 
3242.000000	94.126114 
3241.000000	94.128939 
3240.000000	94.132880 
3239.000000	94.136815 
3238.000000	94.140013 
3237.000000	94.142836 
3236.000000	94.146191 
3235.000000	94.150609 
3234.000000	94.155910 
3233.000000	94.161465 
3232.000000	94.166582 
3231.000000	94.170823 
3230.000000	94.174281 
3229.000000	94.177652 
3228.000000	94.181805 
3227.000000	94.187085 
3226.000000	94.193039 
3225.000000	94.198755 
3224.000000	94.203513 
3223.000000	94.207218 
3222.000000	94.210357 
3221.000000	94.213671 
3220.000000	94.217612 
3219.000000	94.222017 
3218.000000	94.226325 
3217.000000	94.230183 
3216.000000	94.233811 
3215.000000	94.237765 
3214.000000	94.242409 
3213.000000	94.247738 
3212.000000	94.253523 
3211.000000	94.259432 
3210.000000	94.265086 
3209.000000	94.270258 
3208.000000	94.275107 
3207.000000	94.280055 
3206.000000	94.285339 
3205.000000	94.290752 
3204.000000	94.295866 
3203.000000	94.300465 
3202.000000	94.304700 
3201.000000	94.308992 
3200.000000	94.313787 
3199.000000	94.319287 
3198.000000	94.325337 
3197.000000	94.331485 
3196.000000	94.337287 
3195.000000	94.342626 
3194.000000	94.347707 
3193.000000	94.352847 
3192.000000	94.358229 
3191.000000	94.363806 
3190.000000	94.369366 
3189.000000	94.374706 
3188.000000	94.379782 
3187.000000	94.384761 
3186.000000	94.389889 
3185.000000	94.395281 
3184.000000	94.400814 
3183.000000	94.406214 
3182.000000	94.411287 
3181.000000	94.416042 
3180.000000	94.420685 
3179.000000	94.425498 
3178.000000	94.430641 
3177.000000	94.436078 
3176.000000	94.441612 
3175.000000	94.447072 
3174.000000	94.452456 
3173.000000	94.457851 
3172.000000	94.463268 
3171.000000	94.468611 
3170.000000	94.473799 
3169.000000	94.478868 
3168.000000	94.483948 
3167.000000	94.489139 
3166.000000	94.494430 
3165.000000	94.499759 
3164.000000	94.505093 
3163.000000	94.510419 
3162.000000	94.515696 
3161.000000	94.520878 
3160.000000	94.525963 
3159.000000	94.531003 
3158.000000	94.536038 
3157.000000	94.541077 
3156.000000	94.546117 
3155.000000	94.551159 
3154.000000	94.556203 
3153.000000	94.561240 
3152.000000	94.566254 
3151.000000	94.571237 
3150.000000	94.576192 
3149.000000	94.581131 
3148.000000	94.586061 
3147.000000	94.590986 
3146.000000	94.595911 
3145.000000	94.600841 
3144.000000	94.605778 
3143.000000	94.610714 
3142.000000	94.615637 
3141.000000	94.620536 
3140.000000	94.625409 
3139.000000	94.630260 
3138.000000	94.635095 
3137.000000	94.639913 
3136.000000	94.644708 
3135.000000	94.649474 
3134.000000	94.654206 
3133.000000	94.658910 
3132.000000	94.663596 
3131.000000	94.668275 
3130.000000	94.672946 
3129.000000	94.677601 
3128.000000	94.682235 
3127.000000	94.686846 
3126.000000	94.691438 
3125.000000	94.696015 
3124.000000	94.700571 
3123.000000	94.705101 
3122.000000	94.709600 
3121.000000	94.714067 
3120.000000	94.718507 
3119.000000	94.722935 
3118.000000	94.727365 
3117.000000	94.731807 
3116.000000	94.736262 
3115.000000	94.740723 
3114.000000	94.745180 
3113.000000	94.749629 
3112.000000	94.754070 
3111.000000	94.758507 
3110.000000	94.762946 
3109.000000	94.767387 
3108.000000	94.771824 
3107.000000	94.776246 
3106.000000	94.780645 
3105.000000	94.784985 
3104.000000	94.789280 
3103.000000	94.793743 
3102.000000	94.798540 
3101.000000	94.803430 
3100.000000	94.807920 
3099.000000	94.811780 
3098.000000	94.815402 
3097.000000	94.819316 
3096.000000	94.823406 
3095.000000	94.826938 
3094.000000	94.829592 
3093.000000	94.832197 
3092.000000	94.836032 
3091.000000	94.841467 
3090.000000	94.847570 
3089.000000	94.853148 
3088.000000	94.857941 
3087.000000	94.862580 
3086.000000	94.867345 
3085.000000	94.871373 
3084.000000	94.873683 
3083.000000	94.874749 
3082.000000	94.876273 
3081.000000	94.879197 
3080.000000	94.882895 
3079.000000	94.886913 
3078.000000	94.892463 
3077.000000	94.900936 
3076.000000	94.911338 
3075.000000	94.920573 
3074.000000	94.926398 
3073.000000	94.929178 
3072.000000	94.930798 
3071.000000	94.932843 
3070.000000	94.936020 
3069.000000	94.940178 
3068.000000	94.944084 
3067.000000	94.945734 
3066.000000	94.943831 
3065.000000	94.939205 
3064.000000	94.934639 
3063.000000	94.933116 
3062.000000	94.935860 
3061.000000	94.941638 
3060.000000	94.947871 
3059.000000	94.952770 
3058.000000	94.956419 
3057.000000	94.959780 
3056.000000	94.962977 
3055.000000	94.964860 
3054.000000	94.963770 
3053.000000	94.958254 
3052.000000	94.948004 
3051.000000	94.935514 
3050.000000	94.926272 
3049.000000	94.925140 
3048.000000	94.931515 
3047.000000	94.939322 
3046.000000	94.942793 
3045.000000	94.941489 
3044.000000	94.939124 
3043.000000	94.938625 
3042.000000	94.939495 
3041.000000	94.939129 
3040.000000	94.935173 
3039.000000	94.926802 
3038.000000	94.915149 
3037.000000	94.902754 
3036.000000	94.891600 
3035.000000	94.881549 
3034.000000	94.871415 
3033.000000	94.861250 
3032.000000	94.852484 
3031.000000	94.845531 
3030.000000	94.838040 
3029.000000	94.826375 
3028.000000	94.808579 
3027.000000	94.785557 
3026.000000	94.759960 
3025.000000	94.734524 
3024.000000	94.711219 
3023.000000	94.691035 
3022.000000	94.673810 
3021.000000	94.658051 
3020.000000	94.641314 
3019.000000	94.621542 
3018.000000	94.598571 
3017.000000	94.574238 
3016.000000	94.550450 
3015.000000	94.526972 
3014.000000	94.501458 
3013.000000	94.471800 
3012.000000	94.438292 
3011.000000	94.403591 
3010.000000	94.370749 
3009.000000	94.341020 
3008.000000	94.312909 
3007.000000	94.283229 
3006.000000	94.249828 
3005.000000	94.213827 
3004.000000	94.178843 
3003.000000	94.147562 
3002.000000	94.119370 
3001.000000	94.091635 
3000.000000	94.062771 
2999.000000	94.033519 
2998.000000	94.005997 
2997.000000	93.982415 
2996.000000	93.963598 
2995.000000	93.946144 
2994.000000	93.920576 
2993.000000	93.875658 
2992.000000	93.808538 
2991.000000	93.731138 
2990.000000	93.664052 
2989.000000	93.622387 
2988.000000	93.607689 
2987.000000	93.611713 
2986.000000	93.624550 
2985.000000	93.638182 
2984.000000	93.645752 
2983.000000	93.642786 
2982.000000	93.630478 
2981.000000	93.615145 
2980.000000	93.602604 
2979.000000	93.593833 
2978.000000	93.586446 
2977.000000	93.578479 
2976.000000	93.569573 
2975.000000	93.560519 
2974.000000	93.554346 
2973.000000	93.557162 
2972.000000	93.574678 
2971.000000	93.606540 
2970.000000	93.645743 
2969.000000	93.685381 
2968.000000	93.725108 
2967.000000	93.769205 
2966.000000	93.818795 
2965.000000	93.868451 
2964.000000	93.911316 
2963.000000	93.945579 
2962.000000	93.974180 
2961.000000	93.999568 
2960.000000	94.021714 
2959.000000	94.041436 
2958.000000	94.062528 
2957.000000	94.088136 
2956.000000	94.116260 
2955.000000	94.141411 
2954.000000	94.160805 
2953.000000	94.176868 
2952.000000	94.193184 
2951.000000	94.209850 
2950.000000	94.224108 
2949.000000	94.234316 
2948.000000	94.241509 
2947.000000	94.247479 
2946.000000	94.253007 
2945.000000	94.258144 
2944.000000	94.262975 
2943.000000	94.267702 
2942.000000	94.272418 
2941.000000	94.276814 
2940.000000	94.279895 
2939.000000	94.280510 
2938.000000	94.278915 
2937.000000	94.277696 
2936.000000	94.280230 
2935.000000	94.287653 
2934.000000	94.297536 
2933.000000	94.305735 
2932.000000	94.309535 
2931.000000	94.309341 
2930.000000	94.308160 
2929.000000	94.309554 
2928.000000	94.315060 
2927.000000	94.322776 
2926.000000	94.328885 
2925.000000	94.331416 
2924.000000	94.332427 
2923.000000	94.335779 
2922.000000	94.342708 
2921.000000	94.350332 
2920.000000	94.354828 
2919.000000	94.355082 
2918.000000	94.352435 
2917.000000	94.347543 
2916.000000	94.338935 
2915.000000	94.324997 
2914.000000	94.306354 
2913.000000	94.285712 
2912.000000	94.266006 
2911.000000	94.249251 
2910.000000	94.236302 
2909.000000	94.226518 
2908.000000	94.217735 
2907.000000	94.207437 
2906.000000	94.193977 
2905.000000	94.176346 
2904.000000	94.153824 
2903.000000	94.128105 
2902.000000	94.106183 
2901.000000	94.098650 
2900.000000	94.112588 
2899.000000	94.145191 
2898.000000	94.184453 
2897.000000	94.216880 
2896.000000	94.235972 
2895.000000	94.244623 
2894.000000	94.250732 
2893.000000	94.260362 
2892.000000	94.273798 
2891.000000	94.286821 
2890.000000	94.295185 
2889.000000	94.297828 
2888.000000	94.296579 
2887.000000	94.294331 
2886.000000	94.294237 
2885.000000	94.299592 
2884.000000	94.312964 
2883.000000	94.334820 
2882.000000	94.363169 
2881.000000	94.394588 
2880.000000	94.425606 
2879.000000	94.453870 
2878.000000	94.478732 
2877.000000	94.500822 
2876.000000	94.520789 
2875.000000	94.538747 
2874.000000	94.555109 
2873.000000	94.571266 
2872.000000	94.588716 
2871.000000	94.607817 
2870.000000	94.627981 
2869.000000	94.648660 
2868.000000	94.669528 
2867.000000	94.690284 
2866.000000	94.711278 
2865.000000	94.734095 
2864.000000	94.760568 
2863.000000	94.791271 
2862.000000	94.825432 
2861.000000	94.861517 
2860.000000	94.896718 
2859.000000	94.926840 
2858.000000	94.949180 
2857.000000	94.965966 
2856.000000	94.982957 
2855.000000	95.003541 
2854.000000	95.025835 
2853.000000	95.046477 
2852.000000	95.065336 
2851.000000	95.084930 
2850.000000	95.106283 
2849.000000	95.126949 
2848.000000	95.142797 
2847.000000	95.150989 
2846.000000	95.152157 
2845.000000	95.150985 
2844.000000	95.153819 
2843.000000	95.163756 
2842.000000	95.177774 
2841.000000	95.189771 
2840.000000	95.196578 
2839.000000	95.200346 
2838.000000	95.205486 
2837.000000	95.214560 
2836.000000	95.227161 
2835.000000	95.241100 
2834.000000	95.253682 
2833.000000	95.262875 
2832.000000	95.268673 
2831.000000	95.273308 
2830.000000	95.279222 
2829.000000	95.286587 
2828.000000	95.293186 
2827.000000	95.296972 
2826.000000	95.298518 
2825.000000	95.301018 
2824.000000	95.307943 
2823.000000	95.320356 
2822.000000	95.335841 
2821.000000	95.349687 
2820.000000	95.357574 
2819.000000	95.357956 
2818.000000	95.352728 
2817.000000	95.346047 
2816.000000	95.342037 
2815.000000	95.342731 
2814.000000	95.347444 
2813.000000	95.353769 
2812.000000	95.359415 
2811.000000	95.363638 
2810.000000	95.367309 
2809.000000	95.371767 
2808.000000	95.377567 
2807.000000	95.384144 
2806.000000	95.390330 
2805.000000	95.395095 
2804.000000	95.398137 
2803.000000	95.400279 
2802.000000	95.403215 
2801.000000	95.408281 
2800.000000	95.415112 
2799.000000	95.421743 
2798.000000	95.426368 
2797.000000	95.428833 
2796.000000	95.430341 
2795.000000	95.432009 
2794.000000	95.434038 
2793.000000	95.436116 
2792.000000	95.438140 
2791.000000	95.440465 
2790.000000	95.443687 
2789.000000	95.448198 
2788.000000	95.453663 
2787.000000	95.458888 
2786.000000	95.462571 
2785.000000	95.464447 
2784.000000	95.465462 
2783.000000	95.466838 
2782.000000	95.468942 
2781.000000	95.471229 
2780.000000	95.473133 
2779.000000	95.474700 
2778.000000	95.476377 
2777.000000	95.478476 
2776.000000	95.480937 
2775.000000	95.483493 
2774.000000	95.485994 
2773.000000	95.488548 
2772.000000	95.491359 
2771.000000	95.494446 
2770.000000	95.497589 
2769.000000	95.500487 
2768.000000	95.502973 
2767.000000	95.505131 
2766.000000	95.507235 
2765.000000	95.509549 
2764.000000	95.512093 
2763.000000	95.514684 
2762.000000	95.517114 
2761.000000	95.519354 
2760.000000	95.521512 
2759.000000	95.523687 
2758.000000	95.525893 
2757.000000	95.528100 
2756.000000	95.530295 
2755.000000	95.532485 
2754.000000	95.534671 
2753.000000	95.536855 
2752.000000	95.539033 
2751.000000	95.541204 
2750.000000	95.543369 
2749.000000	95.545533 
2748.000000	95.547699 
2747.000000	95.549871 
2746.000000	95.552049 
2745.000000	95.554233 
2744.000000	95.556421 
2743.000000	95.558614 
2742.000000	95.560815 
2741.000000	95.563025 
2740.000000	95.565241 
2739.000000	95.567456 
2738.000000	95.569666 
2737.000000	95.571865 
2736.000000	95.574041 
2735.000000	95.576181 
2734.000000	95.578276 
2733.000000	95.580327 
2732.000000	95.582348 
2731.000000	95.584355 
2730.000000	95.586363 
2729.000000	95.588377 
2728.000000	95.590392 
2727.000000	95.592399 
2726.000000	95.594390 
2725.000000	95.596370 
2724.000000	95.598330 
2723.000000	95.600262 
2722.000000	95.602205 
2721.000000	95.604203 
2720.000000	95.606236 
2719.000000	95.608229 
2718.000000	95.610080 
2717.000000	95.611726 
2716.000000	95.613226 
2715.000000	95.614766 
2714.000000	95.616486 
2713.000000	95.618371 
2712.000000	95.620314 
2711.000000	95.622245 
2710.000000	95.624132 
2709.000000	95.625973 
2708.000000	95.627854 
2707.000000	95.629936 
2706.000000	95.632282 
2705.000000	95.634816 
2704.000000	95.637460 
2703.000000	95.640155 
2702.000000	95.642613 
2701.000000	95.644285 
2700.000000	95.644849 
2699.000000	95.644645 
2698.000000	95.644451 
2697.000000	95.644808 
2696.000000	95.645654 
2695.000000	95.646565 
2694.000000	95.647224 
2693.000000	95.647790 
2692.000000	95.648995 
2691.000000	95.651782 
2690.000000	95.656500 
2689.000000	95.662189 
2688.000000	95.666877 
2687.000000	95.669179 
2686.000000	95.669518 
2685.000000	95.669639 
2684.000000	95.670626 
2683.000000	95.671712 
2682.000000	95.671492 
2681.000000	95.669862 
2680.000000	95.668268 
2679.000000	95.668103 
2678.000000	95.669281 
2677.000000	95.670672 
2676.000000	95.671588 
2675.000000	95.672524 
2674.000000	95.674382 
2673.000000	95.677312 
2672.000000	95.680483 
2671.000000	95.682952 
2670.000000	95.684628 
2669.000000	95.686175 
2668.000000	95.688041 
2667.000000	95.689902 
2666.000000	95.691226 
2665.000000	95.692073 
2664.000000	95.693026 
2663.000000	95.694503 
2662.000000	95.696431 
2661.000000	95.698496 
2660.000000	95.700369 
2659.000000	95.701752 
2658.000000	95.702595 
2657.000000	95.703333 
2656.000000	95.704516 
2655.000000	95.706108 
2654.000000	95.707467 
2653.000000	95.708114 
2652.000000	95.708188 
2651.000000	95.708123 
2650.000000	95.708225 
2649.000000	95.708671 
2648.000000	95.709597 
2647.000000	95.710907 
2646.000000	95.712173 
2645.000000	95.713037 
2644.000000	95.713602 
2643.000000	95.714269 
2642.000000	95.715265 
2641.000000	95.716468 
2640.000000	95.717592 
2639.000000	95.718476 
2638.000000	95.719180 
2637.000000	95.719899 
2636.000000	95.720784 
2635.000000	95.721825 
2634.000000	95.722891 
2633.000000	95.723871 
2632.000000	95.724761 
2631.000000	95.725615 
2630.000000	95.726438 
2629.000000	95.727174 
2628.000000	95.727810 
2627.000000	95.728427 
2626.000000	95.729125 
2625.000000	95.729925 
2624.000000	95.730775 
2623.000000	95.731595 
2622.000000	95.732341 
2621.000000	95.733013 
2620.000000	95.733646 
2619.000000	95.734288 
2618.000000	95.734955 
2617.000000	95.735613 
2616.000000	95.736211 
2615.000000	95.736732 
2614.000000	95.737218 
2613.000000	95.737742 
2612.000000	95.738357 
2611.000000	95.739058 
2610.000000	95.739807 
2609.000000	95.740576 
2608.000000	95.741384 
2607.000000	95.742257 
2606.000000	95.743175 
2605.000000	95.744073 
2604.000000	95.744898 
2603.000000	95.745656 
2602.000000	95.746393 
2601.000000	95.747147 
2600.000000	95.747906 
2599.000000	95.748638 
2598.000000	95.749338 
2597.000000	95.750030 
2596.000000	95.750744 
2595.000000	95.751488 
2594.000000	95.752245 
2593.000000	95.752983 
2592.000000	95.753680 
2591.000000	95.754335 
2590.000000	95.754967 
2589.000000	95.755597 
2588.000000	95.756236 
2587.000000	95.756882 
2586.000000	95.757521 
2585.000000	95.758142 
2584.000000	95.758740 
2583.000000	95.759323 
2582.000000	95.759905 
2581.000000	95.760499 
2580.000000	95.761111 
2579.000000	95.761740 
2578.000000	95.762382 
2577.000000	95.763032 
2576.000000	95.763687 
2575.000000	95.764346 
2574.000000	95.765008 
2573.000000	95.765673 
2572.000000	95.766327 
2571.000000	95.766961 
2570.000000	95.767573 
2569.000000	95.768170 
2568.000000	95.768750 
2567.000000	95.769294 
2566.000000	95.769779 
2565.000000	95.770198 
2564.000000	95.770569 
2563.000000	95.770934 
2562.000000	95.771324 
2561.000000	95.771743 
2560.000000	95.772194 
2559.000000	95.772684 
2558.000000	95.773204 
2557.000000	95.773704 
2556.000000	95.774144 
2555.000000	95.774527 
2554.000000	95.774895 
2553.000000	95.775252 
2552.000000	95.775558 
2551.000000	95.775805 
2550.000000	95.776052 
2549.000000	95.776373 
2548.000000	95.776779 
2547.000000	95.777224 
2546.000000	95.777651 
2545.000000	95.778052 
2544.000000	95.778454 
2543.000000	95.778874 
2542.000000	95.779320 
2541.000000	95.779786 
2540.000000	95.780265 
2539.000000	95.780741 
2538.000000	95.781191 
2537.000000	95.781589 
2536.000000	95.781924 
2535.000000	95.782218 
2534.000000	95.782524 
2533.000000	95.782890 
2532.000000	95.783327 
2531.000000	95.783773 
2530.000000	95.784144 
2529.000000	95.784419 
2528.000000	95.784644 
2527.000000	95.784880 
2526.000000	95.785159 
2525.000000	95.785502 
2524.000000	95.785937 
2523.000000	95.786463 
2522.000000	95.787018 
2521.000000	95.787516 
2520.000000	95.787895 
2519.000000	95.788141 
2518.000000	95.788313 
2517.000000	95.788524 
2516.000000	95.788858 
2515.000000	95.789287 
2514.000000	95.789729 
2513.000000	95.790180 
2512.000000	95.790704 
2511.000000	95.791342 
2510.000000	95.792097 
2509.000000	95.792941 
2508.000000	95.793755 
2507.000000	95.794328 
2506.000000	95.794616 
2505.000000	95.794961 
2504.000000	95.795840 
2503.000000	95.797292 
2502.000000	95.798673 
2501.000000	95.799287 
2500.000000	95.799099 
2499.000000	95.798667 
2498.000000	95.798526 
2497.000000	95.798739 
2496.000000	95.799052 
2495.000000	95.799190 
2494.000000	95.799062 
2493.000000	95.798883 
2492.000000	95.799029 
2491.000000	95.799659 
2490.000000	95.800523 
2489.000000	95.801235 
2488.000000	95.801690 
2487.000000	95.802048 
2486.000000	95.802438 
2485.000000	95.802877 
2484.000000	95.803409 
2483.000000	95.804108 
2482.000000	95.804924 
2481.000000	95.805670 
2480.000000	95.806201 
2479.000000	95.806545 
2478.000000	95.806849 
2477.000000	95.807264 
2476.000000	95.807851 
2475.000000	95.808559 
2474.000000	95.809250 
2473.000000	95.809803 
2472.000000	95.810211 
2471.000000	95.810566 
2470.000000	95.810957 
2469.000000	95.811395 
2468.000000	95.811841 
2467.000000	95.812257 
2466.000000	95.812616 
2465.000000	95.812916 
2464.000000	95.813175 
2463.000000	95.813413 
2462.000000	95.813632 
2461.000000	95.813847 
2460.000000	95.814121 
2459.000000	95.814498 
2458.000000	95.814953 
2457.000000	95.815432 
2456.000000	95.815877 
2455.000000	95.816265 
2454.000000	95.816601 
2453.000000	95.816905 
2452.000000	95.817194 
2451.000000	95.817477 
2450.000000	95.817771 
2449.000000	95.818085 
2448.000000	95.818401 
2447.000000	95.818684 
2446.000000	95.818923 
2445.000000	95.819155 
2444.000000	95.819408 
2443.000000	95.819646 
2442.000000	95.819816 
2441.000000	95.819918 
2440.000000	95.820008 
2439.000000	95.820127 
2438.000000	95.820285 
2437.000000	95.820510 
2436.000000	95.820856 
2435.000000	95.821317 
2434.000000	95.821770 
2433.000000	95.822050 
2432.000000	95.822094 
2431.000000	95.821952 
2430.000000	95.821742 
2429.000000	95.821602 
2428.000000	95.821634 
2427.000000	95.821848 
2426.000000	95.822145 
2425.000000	95.822432 
2424.000000	95.822736 
2423.000000	95.823153 
2422.000000	95.823676 
2421.000000	95.824138 
2420.000000	95.824337 
2419.000000	95.824238 
2418.000000	95.824037 
2417.000000	95.824025 
2416.000000	95.824313 
2415.000000	95.824737 
2414.000000	95.825088 
2413.000000	95.825373 
2412.000000	95.825751 
2411.000000	95.826300 
2410.000000	95.826981 
2409.000000	95.827719 
2408.000000	95.828476 
2407.000000	95.829211 
2406.000000	95.829873 
2405.000000	95.830442 
2404.000000	95.830953 
2403.000000	95.831457 
2402.000000	95.831999 
2401.000000	95.832603 
2400.000000	95.833263 
2399.000000	95.833940 
2398.000000	95.834595 
2397.000000	95.835227 
2396.000000	95.835873 
2395.000000	95.836563 
2394.000000	95.837298 
2393.000000	95.838068 
2392.000000	95.838851 
2391.000000	95.839630 
2390.000000	95.840398 
2389.000000	95.841153 
2388.000000	95.841898 
2387.000000	95.842638 
2386.000000	95.843372 
2385.000000	95.844093 
2384.000000	95.844792 
2383.000000	95.845464 
2382.000000	95.846111 
2381.000000	95.846742 
2380.000000	95.847359 
2379.000000	95.847956 
2378.000000	95.848521 
2377.000000	95.849052 
2376.000000	95.849552 
2375.000000	95.850031 
2374.000000	95.850495 
2373.000000	95.850936 
2372.000000	95.851340 
2371.000000	95.851688 
2370.000000	95.851970 
2369.000000	95.852187 
2368.000000	95.852350 
2367.000000	95.852473 
2366.000000	95.852558 
2365.000000	95.852602 
2364.000000	95.852600 
2363.000000	95.852550 
2362.000000	95.852457 
2361.000000	95.852336 
2360.000000	95.852197 
2359.000000	95.852040 
2358.000000	95.851854 
2357.000000	95.851632 
2356.000000	95.851376 
2355.000000	95.851091 
2354.000000	95.850776 
2353.000000	95.850424 
2352.000000	95.850023 
2351.000000	95.849564 
2350.000000	95.849049 
2349.000000	95.848499 
2348.000000	95.847946 
2347.000000	95.847421 
2346.000000	95.846938 
2345.000000	95.846482 
2344.000000	95.846031 
2343.000000	95.845575 
2342.000000	95.845117 
2341.000000	95.844670 
2340.000000	95.844238 
2339.000000	95.843817 
2338.000000	95.843399 
2337.000000	95.842980 
2336.000000	95.842567 
2335.000000	95.842171 
2334.000000	95.841799 
2333.000000	95.841445 
2332.000000	95.841099 
2331.000000	95.840761 
2330.000000	95.840437 
2329.000000	95.840148 
2328.000000	95.839913 
2327.000000	95.839742 
2326.000000	95.839633 
2325.000000	95.839571 
2324.000000	95.839543 
2323.000000	95.839543 
2322.000000	95.839573 
2321.000000	95.839640 
2320.000000	95.839752 
2319.000000	95.839912 
2318.000000	95.840110 
2317.000000	95.840322 
2316.000000	95.840523 
2315.000000	95.840724 
2314.000000	95.840981 
2313.000000	95.841346 
2312.000000	95.841808 
2311.000000	95.842300 
2310.000000	95.842778 
2309.000000	95.843256 
2308.000000	95.843787 
2307.000000	95.844419 
2306.000000	95.845138 
2305.000000	95.845843 
2304.000000	95.846428 
2303.000000	95.846888 
2302.000000	95.847299 
2301.000000	95.847710 
2300.000000	95.848142 
2299.000000	95.848628 
2298.000000	95.849128 
2297.000000	95.849559 
2296.000000	95.849857 
2295.000000	95.850093 
2294.000000	95.850393 
2293.000000	95.850826 
2292.000000	95.851340 
2291.000000	95.851849 
2290.000000	95.852322 
2289.000000	95.852785 
2288.000000	95.853247 
2287.000000	95.853670 
2286.000000	95.854012 
2285.000000	95.854274 
2284.000000	95.854487 
2283.000000	95.854679 
2282.000000	95.854855 
2281.000000	95.855017 
2280.000000	95.855171 
2279.000000	95.855319 
2278.000000	95.855458 
2277.000000	95.855582 
2276.000000	95.855679 
2275.000000	95.855746 
2274.000000	95.855787 
2273.000000	95.855808 
2272.000000	95.855814 
2271.000000	95.855804 
2270.000000	95.855773 
2269.000000	95.855719 
2268.000000	95.855645 
2267.000000	95.855561 
2266.000000	95.855479 
2265.000000	95.855406 
2264.000000	95.855344 
2263.000000	95.855291 
2262.000000	95.855242 
2261.000000	95.855201 
2260.000000	95.855175 
2259.000000	95.855170 
2258.000000	95.855185 
2257.000000	95.855211 
2256.000000	95.855243 
2255.000000	95.855278 
2254.000000	95.855322 
2253.000000	95.855380 
2252.000000	95.855457 
2251.000000	95.855554 
2250.000000	95.855664 
2249.000000	95.855782 
2248.000000	95.855903 
2247.000000	95.856033 
2246.000000	95.856185 
2245.000000	95.856374 
2244.000000	95.856609 
2243.000000	95.856888 
2242.000000	95.857203 
2241.000000	95.857547 
2240.000000	95.857913 
2239.000000	95.858298 
2238.000000	95.858699 
2237.000000	95.859109 
2236.000000	95.859520 
2235.000000	95.859930 
2234.000000	95.860344 
2233.000000	95.860768 
2232.000000	95.861210 
2231.000000	95.861681 
2230.000000	95.862189 
2229.000000	95.862717 
2228.000000	95.863242 
2227.000000	95.863747 
2226.000000	95.864224 
2225.000000	95.864671 
2224.000000	95.865072 
2223.000000	95.865416 
2222.000000	95.865723 
2221.000000	95.866043 
2220.000000	95.866403 
2219.000000	95.866796 
2218.000000	95.867217 
2217.000000	95.867697 
2216.000000	95.868259 
2215.000000	95.868843 
2214.000000	95.869352 
2213.000000	95.869761 
2212.000000	95.870128 
2211.000000	95.870500 
2210.000000	95.870858 
2209.000000	95.871165 
2208.000000	95.871419 
2207.000000	95.871640 
2206.000000	95.871853 
2205.000000	95.872110 
2204.000000	95.872450 
2203.000000	95.872840 
2202.000000	95.873176 
2201.000000	95.873381 
2200.000000	95.873462 
2199.000000	95.873486 
2198.000000	95.873524 
2197.000000	95.873612 
2196.000000	95.873743 
2195.000000	95.873895 
2194.000000	95.874037 
2193.000000	95.874157 
2192.000000	95.874259 
2191.000000	95.874351 
2190.000000	95.874436 
2189.000000	95.874513 
2188.000000	95.874584 
2187.000000	95.874652 
2186.000000	95.874720 
2185.000000	95.874790 
2184.000000	95.874868 
2183.000000	95.874959 
2182.000000	95.875060 
2181.000000	95.875162 
2180.000000	95.875257 
2179.000000	95.875342 
2178.000000	95.875416 
2177.000000	95.875479 
2176.000000	95.875534 
2175.000000	95.875582 
2174.000000	95.875624 
2173.000000	95.875659 
2172.000000	95.875689 
2171.000000	95.875718 
2170.000000	95.875754 
2169.000000	95.875800 
2168.000000	95.875856 
2167.000000	95.875909 
2166.000000	95.875949 
2165.000000	95.875967 
2164.000000	95.875967 
2163.000000	95.875958 
2162.000000	95.875947 
2161.000000	95.875937 
2160.000000	95.875927 
2159.000000	95.875913 
2158.000000	95.875892 
2157.000000	95.875865 
2156.000000	95.875835 
2155.000000	95.875802 
2154.000000	95.875762 
2153.000000	95.875711 
2152.000000	95.875646 
2151.000000	95.875572 
2150.000000	95.875500 
2149.000000	95.875440 
2148.000000	95.875400 
2147.000000	95.875378 
2146.000000	95.875365 
2145.000000	95.875349 
2144.000000	95.875328 
2143.000000	95.875303 
2142.000000	95.875284 
2141.000000	95.875274 
2140.000000	95.875274 
2139.000000	95.875282 
2138.000000	95.875298 
2137.000000	95.875319 
2136.000000	95.875345 
2135.000000	95.875375 
2134.000000	95.875402 
2133.000000	95.875420 
2132.000000	95.875426 
2131.000000	95.875423 
2130.000000	95.875419 
2129.000000	95.875422 
2128.000000	95.875435 
2127.000000	95.875457 
2126.000000	95.875485 
2125.000000	95.875521 
2124.000000	95.875570 
2123.000000	95.875640 
2122.000000	95.875735 
2121.000000	95.875855 
2120.000000	95.875994 
2119.000000	95.876142 
2118.000000	95.876293 
2117.000000	95.876446 
2116.000000	95.876611 
2115.000000	95.876796 
2114.000000	95.877005 
2113.000000	95.877229 
2112.000000	95.877460 
2111.000000	95.877692 
2110.000000	95.877922 
2109.000000	95.878153 
2108.000000	95.878387 
2107.000000	95.878626 
2106.000000	95.878863 
2105.000000	95.879090 
2104.000000	95.879303 
2103.000000	95.879509 
2102.000000	95.879721 
2101.000000	95.879949 
2100.000000	95.880191 
2099.000000	95.880439 
2098.000000	95.880681 
2097.000000	95.880911 
2096.000000	95.881129 
2095.000000	95.881342 
2094.000000	95.881555 
2093.000000	95.881769 
2092.000000	95.881988 
2091.000000	95.882211 
2090.000000	95.882419 
2089.000000	95.882599 
2088.000000	95.882780 
2087.000000	95.883017 
2086.000000	95.883321 
2085.000000	95.883627 
2084.000000	95.883867 
2083.000000	95.884062 
2082.000000	95.884285 
2081.000000	95.884589 
2080.000000	95.884998 
2079.000000	95.885512 
2078.000000	95.886026 
2077.000000	95.886362 
2076.000000	95.886460 
2075.000000	95.886496 
2074.000000	95.886675 
2073.000000	95.886966 
2072.000000	95.887131 
2071.000000	95.886961 
2070.000000	95.886420 
2069.000000	95.885714 
2068.000000	95.885262 
2067.000000	95.885347 
2066.000000	95.885765 
2065.000000	95.885990 
2064.000000	95.885860 
2063.000000	95.885826 
2062.000000	95.886328 
2061.000000	95.887183 
2060.000000	95.887817 
2059.000000	95.887922 
2058.000000	95.887570 
2057.000000	95.886954 
2056.000000	95.886255 
2055.000000	95.885688 
2054.000000	95.885467 
2053.000000	95.885648 
2052.000000	95.886068 
2051.000000	95.886356 
2050.000000	95.886135 
2049.000000	95.885332 
2048.000000	95.884328 
2047.000000	95.883663 
2046.000000	95.883520 
2045.000000	95.883673 
2044.000000	95.883841 
2043.000000	95.883943 
2042.000000	95.883913 
2041.000000	95.883564 
2040.000000	95.882918 
2039.000000	95.882384 
2038.000000	95.882315 
2037.000000	95.882516 
2036.000000	95.882463 
2035.000000	95.881912 
2034.000000	95.881031 
2033.000000	95.880095 
2032.000000	95.879315 
2031.000000	95.878821 
2030.000000	95.878482 
2029.000000	95.877865 
2028.000000	95.876674 
2027.000000	95.875143 
2026.000000	95.873740 
2025.000000	95.872637 
2024.000000	95.871773 
2023.000000	95.871156 
2022.000000	95.870788 
2021.000000	95.870452 
2020.000000	95.870054 
2019.000000	95.869940 
2018.000000	95.870367 
2017.000000	95.870848 
2016.000000	95.870594 
2015.000000	95.869449 
2014.000000	95.867919 
2013.000000	95.866540 
2012.000000	95.865505 
2011.000000	95.864877 
2010.000000	95.864604 
2009.000000	95.864315 
2008.000000	95.863590 
2007.000000	95.862532 
2006.000000	95.861694 
2005.000000	95.861361 
2004.000000	95.861284 
2003.000000	95.861185 
2002.000000	95.861196 
2001.000000	95.861485 
2000.000000	95.861835 
1999.000000	95.861879 
1998.000000	95.861581 
1997.000000	95.861261 
1996.000000	95.861200 
1995.000000	95.861362 
1994.000000	95.861555 
1993.000000	95.861695 
1992.000000	95.861863 
1991.000000	95.862132 
1990.000000	95.862463 
1989.000000	95.862766 
1988.000000	95.863002 
1987.000000	95.863208 
1986.000000	95.863424 
1985.000000	95.863663 
1984.000000	95.863917 
1983.000000	95.864180 
1982.000000	95.864449 
1981.000000	95.864724 
1980.000000	95.865012 
1979.000000	95.865319 
1978.000000	95.865645 
1977.000000	95.865981 
1976.000000	95.866311 
1975.000000	95.866630 
1974.000000	95.866937 
1973.000000	95.867242 
1972.000000	95.867554 
1971.000000	95.867875 
1970.000000	95.868200 
1969.000000	95.868518 
1968.000000	95.868819 
1967.000000	95.869099 
1966.000000	95.869356 
1965.000000	95.869592 
1964.000000	95.869804 
1963.000000	95.869990 
1962.000000	95.870144 
1961.000000	95.870264 
1960.000000	95.870354 
1959.000000	95.870417 
1958.000000	95.870456 
1957.000000	95.870471 
1956.000000	95.870457 
1955.000000	95.870408 
1954.000000	95.870323 
1953.000000	95.870204 
1952.000000	95.870060 
1951.000000	95.869901 
1950.000000	95.869722 
1949.000000	95.869521 
1948.000000	95.869304 
1947.000000	95.869054 
1946.000000	95.868725 
1945.000000	95.868285 
1944.000000	95.867791 
1943.000000	95.867381 
1942.000000	95.867133 
1941.000000	95.866961 
1940.000000	95.866736 
1939.000000	95.866388 
1938.000000	95.865791 
1937.000000	95.864783 
1936.000000	95.863493 
1935.000000	95.862432 
1934.000000	95.861929 
1933.000000	95.861675 
1932.000000	95.861027 
1931.000000	95.859797 
1930.000000	95.858419 
1929.000000	95.857300 
1928.000000	95.856433 
1927.000000	95.855340 
1926.000000	95.853503 
1925.000000	95.850888 
1924.000000	95.848254 
1923.000000	95.846744 
1922.000000	95.846569 
1921.000000	95.846699 
1920.000000	95.846259 
1919.000000	95.845509 
1918.000000	95.844979 
1917.000000	95.844381 
1916.000000	95.843478 
1915.000000	95.843100 
1914.000000	95.843734 
1913.000000	95.844011 
1912.000000	95.841848 
1911.000000	95.837083 
1910.000000	95.831705 
1909.000000	95.827388 
1908.000000	95.824185 
1907.000000	95.821030 
1906.000000	95.817107 
1905.000000	95.812295 
1904.000000	95.807453 
1903.000000	95.804476 
1902.000000	95.804076 
1901.000000	95.804364 
1900.000000	95.803108 
1899.000000	95.800503 
1898.000000	95.798494 
1897.000000	95.797690 
1896.000000	95.796627 
1895.000000	95.794420 
1894.000000	95.791916 
1893.000000	95.790072 
1892.000000	95.788935 
1891.000000	95.788532 
1890.000000	95.789161 
1889.000000	95.790127 
1888.000000	95.789625 
1887.000000	95.786772 
1886.000000	95.782567 
1885.000000	95.778619 
1884.000000	95.775607 
1883.000000	95.773215 
1882.000000	95.771040 
1881.000000	95.769643 
1880.000000	95.770666 
1879.000000	95.774526 
1878.000000	95.778606 
1877.000000	95.779486 
1876.000000	95.777099 
1875.000000	95.775310 
1874.000000	95.777152 
1873.000000	95.780913 
1872.000000	95.782658 
1871.000000	95.781356 
1870.000000	95.779655 
1869.000000	95.780026 
1868.000000	95.782235 
1867.000000	95.785387 
1866.000000	95.789451 
1865.000000	95.793831 
1864.000000	95.797164 
1863.000000	95.799356 
1862.000000	95.802266 
1861.000000	95.807649 
1860.000000	95.815382 
1859.000000	95.823890 
1858.000000	95.831139 
1857.000000	95.835367 
1856.000000	95.836521 
1855.000000	95.837147 
1854.000000	95.840279 
1853.000000	95.845811 
1852.000000	95.851218 
1851.000000	95.854498 
1850.000000	95.855736 
1849.000000	95.856591 
1848.000000	95.858770 
1847.000000	95.863208 
1846.000000	95.869285 
1845.000000	95.874605 
1844.000000	95.876579 
1843.000000	95.875787 
1842.000000	95.875442 
1841.000000	95.877174 
1840.000000	95.879982 
1839.000000	95.881942 
1838.000000	95.882294 
1837.000000	95.881609 
1836.000000	95.880708 
1835.000000	95.880371 
1834.000000	95.881289 
1833.000000	95.883794 
1832.000000	95.887413 
1831.000000	95.890111 
1830.000000	95.889469 
1829.000000	95.885640 
1828.000000	95.881560 
1827.000000	95.879799 
1826.000000	95.880600 
1825.000000	95.882464 
1824.000000	95.883722 
1823.000000	95.884179 
1822.000000	95.884687 
1821.000000	95.885566 
1820.000000	95.886281 
1819.000000	95.886277 
1818.000000	95.885733 
1817.000000	95.884799 
1816.000000	95.883085 
1815.000000	95.880707 
1814.000000	95.878745 
1813.000000	95.878577 
1812.000000	95.880348 
1811.000000	95.882401 
1810.000000	95.882645 
1809.000000	95.880195 
1808.000000	95.876135 
1807.000000	95.872611 
1806.000000	95.870821 
1805.000000	95.870285 
1804.000000	95.870037 
1803.000000	95.870088 
1802.000000	95.870720 
1801.000000	95.871291 
1800.000000	95.870359 
1799.000000	95.867449 
1798.000000	95.863750 
1797.000000	95.860429 
1796.000000	95.857717 
1795.000000	95.855678 
1794.000000	95.854810 
1793.000000	95.855713 
1792.000000	95.858036 
1791.000000	95.860629 
1790.000000	95.862693 
1789.000000	95.863938 
1788.000000	95.864334 
1787.000000	95.863912 
1786.000000	95.862772 
1785.000000	95.861108 
1784.000000	95.859359 
1783.000000	95.858490 
1782.000000	95.858884 
1781.000000	95.860309 
1780.000000	95.861977 
1779.000000	95.862920 
1778.000000	95.862958 
1777.000000	95.862366 
1776.000000	95.861704 
1775.000000	95.861090 
1774.000000	95.859924 
1773.000000	95.857645 
1772.000000	95.854746 
1771.000000	95.853071 
1770.000000	95.854438 
1769.000000	95.859273 
1768.000000	95.866316 
1767.000000	95.872779 
1766.000000	95.876409 
1765.000000	95.877878 
1764.000000	95.879110 
1763.000000	95.881120 
1762.000000	95.883030 
1761.000000	95.883530 
1760.000000	95.882493 
1759.000000	95.881393 
1758.000000	95.881617 
1757.000000	95.882575 
1756.000000	95.882514 
1755.000000	95.880358 
1754.000000	95.877522 
1753.000000	95.876552 
1752.000000	95.878674 
1751.000000	95.881795 
1750.000000	95.882966 
1749.000000	95.881863 
1748.000000	95.880201 
1747.000000	95.878994 
1746.000000	95.877970 
1745.000000	95.878457 
1744.000000	95.882000 
1743.000000	95.887473 
1742.000000	95.891935 
1741.000000	95.893634 
1740.000000	95.892551 
1739.000000	95.889660 
1738.000000	95.886147 
1737.000000	95.882784 
1736.000000	95.879817 
1735.000000	95.877077 
1734.000000	95.872666 
1733.000000	95.866729 
1732.000000	95.863630 
1731.000000	95.865689 
1730.000000	95.870387 
1729.000000	95.872903 
1728.000000	95.870985 
1727.000000	95.865916 
1726.000000	95.858918 
1725.000000	95.850654 
1724.000000	95.842361 
1723.000000	95.836589 
1722.000000	95.834530 
1721.000000	95.833137 
1720.000000	95.827730 
1719.000000	95.816384 
1718.000000	95.803090 
1717.000000	95.794105 
1716.000000	95.790013 
1715.000000	95.787120 
1714.000000	95.782943 
1713.000000	95.776671 
1712.000000	95.769207 
1711.000000	95.762929 
1710.000000	95.758815 
1709.000000	95.754944 
1708.000000	95.749044 
1707.000000	95.740551 
1706.000000	95.730590 
1705.000000	95.720308 
1704.000000	95.710777 
1703.000000	95.702995 
1702.000000	95.696784 
1701.000000	95.689897 
1700.000000	95.678584 
1699.000000	95.665003 
1698.000000	95.654724 
1697.000000	95.648314 
1696.000000	95.642748 
1695.000000	95.634970 
1694.000000	95.624816 
1693.000000	95.613845 
1692.000000	95.602744 
1691.000000	95.592466 
1690.000000	95.584187 
1689.000000	95.577374 
1688.000000	95.569864 
1687.000000	95.559374 
1686.000000	95.545959 
1685.000000	95.532943 
1684.000000	95.524346 
1683.000000	95.520482 
1682.000000	95.516766 
1681.000000	95.510458 
1680.000000	95.502847 
1679.000000	95.494832 
1678.000000	95.485845 
1677.000000	95.475763 
1676.000000	95.465674 
1675.000000	95.456234 
1674.000000	95.446399 
1673.000000	95.436260 
1672.000000	95.426478 
1671.000000	95.416512 
1670.000000	95.404900 
1669.000000	95.392315 
1668.000000	95.383367 
1667.000000	95.380498 
1666.000000	95.381647 
1665.000000	95.383631 
1664.000000	95.383806 
1663.000000	95.380801 
1662.000000	95.373838 
1661.000000	95.363965 
1660.000000	95.354075 
1659.000000	95.344849 
1658.000000	95.334476 
1657.000000	95.320532 
1656.000000	95.303019 
1655.000000	95.282533 
1654.000000	95.267627 
1653.000000	95.267510 
1652.000000	95.275246 
1651.000000	95.280439 
1650.000000	95.281467 
1649.000000	95.279395 
1648.000000	95.276646 
1647.000000	95.275494 
1646.000000	95.275710 
1645.000000	95.275721 
1644.000000	95.275317 
1643.000000	95.275632 
1642.000000	95.275177 
1641.000000	95.272456 
1640.000000	95.269236 
1639.000000	95.267549 
1638.000000	95.267063 
1637.000000	95.266703 
1636.000000	95.269508 
1635.000000	95.277597 
1634.000000	95.286314 
1633.000000	95.290683 
1632.000000	95.291924 
1631.000000	95.295170 
1630.000000	95.302788 
1629.000000	95.312492 
1628.000000	95.321804 
1627.000000	95.331881 
1626.000000	95.343809 
1625.000000	95.356306 
1624.000000	95.367870 
1623.000000	95.378021 
1622.000000	95.385643 
1621.000000	95.389630 
1620.000000	95.392092 
1619.000000	95.397443 
1618.000000	95.410243 
1617.000000	95.430389 
1616.000000	95.452441 
1615.000000	95.471733 
1614.000000	95.486376 
1613.000000	95.495603 
1612.000000	95.500588 
1611.000000	95.504880 
1610.000000	95.511589 
1609.000000	95.521834 
1608.000000	95.535542 
1607.000000	95.552078 
1606.000000	95.569000 
1605.000000	95.584064 
1604.000000	95.597314 
1603.000000	95.609266 
1602.000000	95.619993 
1601.000000	95.629946 
1600.000000	95.640652 
1599.000000	95.653006 
1598.000000	95.665419 
1597.000000	95.675287 
1596.000000	95.681669 
1595.000000	95.686019 
1594.000000	95.690358 
1593.000000	95.695796 
1592.000000	95.702836 
1591.000000	95.711400 
1590.000000	95.720092 
1589.000000	95.727338 
1588.000000	95.733765 
1587.000000	95.741640 
1586.000000	95.751374 
1585.000000	95.759875 
1584.000000	95.764976 
1583.000000	95.767427 
1582.000000	95.769385 
1581.000000	95.772777 
1580.000000	95.778230 
1579.000000	95.784143 
1578.000000	95.787579 
1577.000000	95.786964 
1576.000000	95.783522 
1575.000000	95.781217 
1574.000000	95.781570 
1573.000000	95.783121 
1572.000000	95.785579 
1571.000000	95.790799 
1570.000000	95.799702 
1569.000000	95.809254 
1568.000000	95.816109 
1567.000000	95.819210 
1566.000000	95.819768 
1565.000000	95.819427 
1564.000000	95.819849 
1563.000000	95.820987 
1562.000000	95.822229 
1561.000000	95.822618 
1560.000000	95.823640 
1559.000000	95.825246 
1558.000000	95.826200 
1557.000000	95.826084 
1556.000000	95.826564 
1555.000000	95.829811 
1554.000000	95.834155 
1553.000000	95.836465 
1552.000000	95.835933 
1551.000000	95.834369 
1550.000000	95.834353 
1549.000000	95.836320 
1548.000000	95.838695 
1547.000000	95.840295 
1546.000000	95.841198 
1545.000000	95.842332 
1544.000000	95.844560 
1543.000000	95.847838 
1542.000000	95.851503 
1541.000000	95.854515 
1540.000000	95.855743 
1539.000000	95.855389 
1538.000000	95.854749 
1537.000000	95.854664 
1536.000000	95.855094 
1535.000000	95.855851 
1534.000000	95.856832 
1533.000000	95.857976 
1532.000000	95.859061 
1531.000000	95.859874 
1530.000000	95.860522 
1529.000000	95.861231 
1528.000000	95.862158 
1527.000000	95.863404 
1526.000000	95.864904 
1525.000000	95.866447 
1524.000000	95.867872 
1523.000000	95.869146 
1522.000000	95.870306 
1521.000000	95.871306 
1520.000000	95.872021 
1519.000000	95.872490 
1518.000000	95.873021 
1517.000000	95.873973 
1516.000000	95.875316 
1515.000000	95.876613 
1514.000000	95.877585 
1513.000000	95.878370 
1512.000000	95.878968 
1511.000000	95.879115 
1510.000000	95.878738 
1509.000000	95.878254 
1508.000000	95.879188 
1507.000000	95.883678 
1506.000000	95.889687 
1505.000000	95.891612 
1504.000000	95.889144 
1503.000000	95.885729 
1502.000000	95.884004 
1501.000000	95.885268 
1500.000000	95.888496 
1499.000000	95.890546 
1498.000000	95.888642 
1497.000000	95.883803 
1496.000000	95.880095 
1495.000000	95.880433 
1494.000000	95.883660 
1493.000000	95.886492 
1492.000000	95.886725 
1491.000000	95.885384 
1490.000000	95.886092 
1489.000000	95.889991 
1488.000000	95.893004 
1487.000000	95.891656 
1486.000000	95.886536 
1485.000000	95.879175 
1484.000000	95.871952 
1483.000000	95.867282 
1482.000000	95.866244 
1481.000000	95.867314 
1480.000000	95.867446 
1479.000000	95.865558 
1478.000000	95.863069 
1477.000000	95.861765 
1476.000000	95.861714 
1475.000000	95.862087 
1474.000000	95.861571 
1473.000000	95.859411 
1472.000000	95.855529 
1471.000000	95.849877 
1470.000000	95.843000 
1469.000000	95.836266 
1468.000000	95.831010 
1467.000000	95.828017 
1466.000000	95.826343 
1465.000000	95.823072 
1464.000000	95.815586 
1463.000000	95.802791 
1462.000000	95.785528 
1461.000000	95.765497 
1460.000000	95.745523 
1459.000000	95.729208 
1458.000000	95.719154 
1457.000000	95.712009 
1456.000000	95.699879 
1455.000000	95.682755 
1454.000000	95.668137 
1453.000000	95.660224 
1452.000000	95.657043 
1451.000000	95.654264 
1450.000000	95.650508 
1449.000000	95.648468 
1448.000000	95.649986 
1447.000000	95.652797 
1446.000000	95.651826 
1445.000000	95.644923 
1444.000000	95.633682 
1443.000000	95.620937 
1442.000000	95.610399 
1441.000000	95.604845 
1440.000000	95.604289 
1439.000000	95.605643 
1438.000000	95.605915 
1437.000000	95.603442 
1436.000000	95.596724 
1435.000000	95.584981 
1434.000000	95.570764 
1433.000000	95.558266 
1432.000000	95.549728 
1431.000000	95.544016 
1430.000000	95.537993 
1429.000000	95.529937 
1428.000000	95.520475 
1427.000000	95.511487 
1426.000000	95.503567 
1425.000000	95.496446 
1424.000000	95.489669 
1423.000000	95.481671 
1422.000000	95.470972 
1421.000000	95.457837 
1420.000000	95.444926 
1419.000000	95.434784 
1418.000000	95.426019 
1417.000000	95.414614 
1416.000000	95.399006 
1415.000000	95.380305 
1414.000000	95.359904 
1413.000000	95.339570 
1412.000000	95.321833 
1411.000000	95.308109 
1410.000000	95.296753 
1409.000000	95.284963 
1408.000000	95.272673 
1407.000000	95.264214 
1406.000000	95.264949 
1405.000000	95.277363 
1404.000000	95.298451 
1403.000000	95.320443 
1402.000000	95.337460 
1401.000000	95.350106 
1400.000000	95.363073 
1399.000000	95.377273 
1398.000000	95.384351 
1397.000000	95.373530 
1396.000000	95.344420 
1395.000000	95.313756 
1394.000000	95.304524 
1393.000000	95.324358 
1392.000000	95.361761 
1391.000000	95.399532 
1390.000000	95.426047 
1389.000000	95.437844 
1388.000000	95.437759 
1387.000000	95.432236 
1386.000000	95.427305 
1385.000000	95.425626 
1384.000000	95.427195 
1383.000000	95.430692 
1382.000000	95.434727 
1381.000000	95.439097 
1380.000000	95.445468 
1379.000000	95.456143 
1378.000000	95.471698 
1377.000000	95.490442 
1376.000000	95.510330 
1375.000000	95.530711 
1374.000000	95.551804 
1373.000000	95.573466 
1372.000000	95.595226 
1371.000000	95.617569 
1370.000000	95.641232 
1369.000000	95.665510 
1368.000000	95.688054 
1367.000000	95.706528 
1366.000000	95.720769 
1365.000000	95.732935 
1364.000000	95.745884 
1363.000000	95.761530 
1362.000000	95.779330 
1361.000000	95.795857 
1360.000000	95.807359 
1359.000000	95.813303 
1358.000000	95.817705 
1357.000000	95.826896 
1356.000000	95.843876 
1355.000000	95.864179 
1354.000000	95.879330 
1353.000000	95.885482 
1352.000000	95.886068 
1351.000000	95.886562 
1350.000000	95.888767 
1349.000000	95.890753 
1348.000000	95.890838 
1347.000000	95.889863 
1346.000000	95.889227 
1345.000000	95.888444 
1344.000000	95.886372 
1343.000000	95.883734 
1342.000000	95.882511 
1341.000000	95.882948 
1340.000000	95.883051 
1339.000000	95.881724 
1338.000000	95.880778 
1337.000000	95.882457 
1336.000000	95.886155 
1335.000000	95.888922 
1334.000000	95.888664 
1333.000000	95.885887 
1332.000000	95.882776 
1331.000000	95.881836 
1330.000000	95.884763 
1329.000000	95.890746 
1328.000000	95.895639 
1327.000000	95.894810 
1326.000000	95.888019 
1325.000000	95.880728 
1324.000000	95.879424 
1323.000000	95.885376 
1322.000000	95.893294 
1321.000000	95.896080 
1320.000000	95.891005 
1319.000000	95.881958 
1318.000000	95.875972 
1317.000000	95.877074 
1316.000000	95.883613 
1315.000000	95.890915 
1314.000000	95.895240 
1313.000000	95.895352 
1312.000000	95.891998 
1311.000000	95.887440 
1310.000000	95.884870 
1309.000000	95.886233 
1308.000000	95.890004 
1307.000000	95.892471 
1306.000000	95.891666 
1305.000000	95.889174 
1304.000000	95.887853 
1303.000000	95.888800 
1302.000000	95.891034 
1301.000000	95.892863 
1300.000000	95.892800 
1299.000000	95.890323 
1298.000000	95.886707 
1297.000000	95.884574 
1296.000000	95.885918 
1295.000000	95.890611 
1294.000000	95.896630 
1293.000000	95.900901 
1292.000000	95.900390 
1291.000000	95.894393 
1290.000000	95.886256 
1289.000000	95.880818 
1288.000000	95.879203 
1287.000000	95.878015 
1286.000000	95.874649 
1285.000000	95.870854 
1284.000000	95.869484 
1283.000000	95.870131 
1282.000000	95.870398 
1281.000000	95.869850 
1280.000000	95.869861 
1279.000000	95.870142 
1278.000000	95.868489 
1277.000000	95.864322 
1276.000000	95.859745 
1275.000000	95.856465 
1274.000000	95.853937 
1273.000000	95.851388 
1272.000000	95.849443 
1271.000000	95.848327 
1270.000000	95.846107 
1269.000000	95.840606 
1268.000000	95.832325 
1267.000000	95.824250 
1266.000000	95.819143 
1265.000000	95.817168 
1264.000000	95.815068 
1263.000000	95.807804 
1262.000000	95.793438 
1261.000000	95.776931 
1260.000000	95.765980 
1259.000000	95.761164 
1258.000000	95.753658 
1257.000000	95.735997 
1256.000000	95.712218 
1255.000000	95.693102 
1254.000000	95.682715 
1253.000000	95.674615 
1252.000000	95.661874 
1251.000000	95.646122 
1250.000000	95.634627 
1249.000000	95.632026 
1248.000000	95.637428 
1247.000000	95.646179 
1246.000000	95.650430 
1245.000000	95.640263 
1244.000000	95.610694 
1243.000000	95.570668 
1242.000000	95.541479 
1241.000000	95.540298 
1240.000000	95.563550 
1239.000000	95.588434 
1238.000000	95.592684 
1237.000000	95.571974 
1236.000000	95.537759 
1235.000000	95.502377 
1234.000000	95.470190 
1233.000000	95.440963 
1232.000000	95.414635 
1231.000000	95.389556 
1230.000000	95.360814 
1229.000000	95.325272 
1228.000000	95.286575 
1227.000000	95.251388 
1226.000000	95.221300 
1225.000000	95.191219 
1224.000000	95.154841 
1223.000000	95.108878 
1222.000000	95.053000 
1221.000000	94.989131 
1220.000000	94.920873 
1219.000000	94.850873 
1218.000000	94.778177 
1217.000000	94.699847 
1216.000000	94.614936 
1215.000000	94.525185 
1214.000000	94.432640 
1213.000000	94.338535 
1212.000000	94.243196 
1211.000000	94.144877 
1210.000000	94.040564 
1209.000000	93.931011 
1208.000000	93.822750 
1207.000000	93.720586 
1206.000000	93.619931 
1205.000000	93.512036 
1204.000000	93.395591 
1203.000000	93.277417 
1202.000000	93.162668 
1201.000000	93.050580 
1200.000000	92.939927 
1199.000000	92.832437 
1198.000000	92.729262 
1197.000000	92.628583 
1196.000000	92.527672 
1195.000000	92.423905 
1194.000000	92.314667 
1193.000000	92.200521 
1192.000000	92.087126 
1191.000000	91.978959 
1190.000000	91.872532 
1189.000000	91.761499 
1188.000000	91.646705 
1187.000000	91.534355 
1186.000000	91.425579 
1185.000000	91.315372 
1184.000000	91.201028 
1183.000000	91.083489 
1182.000000	90.960820 
1181.000000	90.829467 
1180.000000	90.692780 
1179.000000	90.559060 
1178.000000	90.428833 
1177.000000	90.292245 
1176.000000	90.141281 
1175.000000	89.977204 
1174.000000	89.804784 
1173.000000	89.627511 
1172.000000	89.449877 
1171.000000	89.274999 
1170.000000	89.097616 
1169.000000	88.909102 
1168.000000	88.712888 
1167.000000	88.526210 
1166.000000	88.364391 
1165.000000	88.233526 
1164.000000	88.140948 
1163.000000	88.100175 
1162.000000	88.118915 
1161.000000	88.190054 
1160.000000	88.296858 
1159.000000	88.417198 
1158.000000	88.521161 
1157.000000	88.578138 
1156.000000	88.574162 
1155.000000	88.517166 
1154.000000	88.423366 
1153.000000	88.305124 
1152.000000	88.172984 
1151.000000	88.037861 
1150.000000	87.903713 
1149.000000	87.765217 
1148.000000	87.618637 
1147.000000	87.468878 
1146.000000	87.321631 
1145.000000	87.175255 
1144.000000	87.024649 
1143.000000	86.867268 
1142.000000	86.702797 
1141.000000	86.533524 
1140.000000	86.366590 
1139.000000	86.207911 
1138.000000	86.052310 
1137.000000	85.888216 
1136.000000	85.712953 
1135.000000	85.533848 
1134.000000	85.353926 
1133.000000	85.168358 
1132.000000	84.976983 
1131.000000	84.787735 
1130.000000	84.604095 
1129.000000	84.420837 
1128.000000	84.235445 
1127.000000	84.051771 
1126.000000	83.869181 
1125.000000	83.680493 
1124.000000	83.484239 
1123.000000	83.286895 
1122.000000	83.089923 
1121.000000	82.887262 
1120.000000	82.678683 
1119.000000	82.472261 
1118.000000	82.270634 
1117.000000	82.068977 
1116.000000	81.868831 
1115.000000	81.677921 
1114.000000	81.493190 
1113.000000	81.300852 
1112.000000	81.097212 
1111.000000	80.892357 
1110.000000	80.689983 
1109.000000	80.482099 
1108.000000	80.267619 
1107.000000	80.057272 
1106.000000	79.855050 
1105.000000	79.652333 
1104.000000	79.444914 
1103.000000	79.238282 
1102.000000	79.031901 
1101.000000	78.816473 
1100.000000	78.592050 
1099.000000	78.371160 
1098.000000	78.159157 
1097.000000	77.948582 
1096.000000	77.736771 
1095.000000	77.530111 
1094.000000	77.325982 
1093.000000	77.110140 
1092.000000	76.878846 
1091.000000	76.646333 
1090.000000	76.424983 
1089.000000	76.215164 
1088.000000	76.017586 
1087.000000	75.835743 
1086.000000	75.662217 
1085.000000	75.483407 
1084.000000	75.302444 
1083.000000	75.136336 
1082.000000	74.986226 
1081.000000	74.832972 
1080.000000	74.667839 
1079.000000	74.505022 
1078.000000	74.357271 
1077.000000	74.221450 
1076.000000	74.094604 
1075.000000	73.980559 
1074.000000	73.872404 
1073.000000	73.750521 
1072.000000	73.604581 
1071.000000	73.435339 
1070.000000	73.231028 
1069.000000	72.970093 
1068.000000	72.657254 
1067.000000	72.332970 
1066.000000	72.033604 
1065.000000	71.761342 
1064.000000	71.503742 
1063.000000	71.255936 
1062.000000	71.008907 
1061.000000	70.741255 
1060.000000	70.442471 
1059.000000	70.129507 
1058.000000	69.827824 
1057.000000	69.550436 
1056.000000	69.302469 
1055.000000	69.084840 
1054.000000	68.882277 
1053.000000	68.667721 
1052.000000	68.430953 
1051.000000	68.185928 
1050.000000	67.942340 
1049.000000	67.692713 
1048.000000	67.434739 
1047.000000	67.179107 
1046.000000	66.927283 
1045.000000	66.667297 
1044.000000	66.397095 
1043.000000	66.127503 
1042.000000	65.857305 
1041.000000	65.570132 
1040.000000	65.262887 
1039.000000	64.954809 
1038.000000	64.663339 
1037.000000	64.393912 
1036.000000	64.155449 
1035.000000	63.958210 
1034.000000	63.790796 
1033.000000	63.624889 
1032.000000	63.447503 
1031.000000	63.265553 
1030.000000	63.081833 
1029.000000	62.897822 
1028.000000	62.737923 
1027.000000	62.632873 
1026.000000	62.573557 
1025.000000	62.515215 
1024.000000	62.434055 
1023.000000	62.345642 
1022.000000	62.262672 
1021.000000	62.173809 
1020.000000	62.073671 
1019.000000	61.976675 
1018.000000	61.888042 
1017.000000	61.793596 
1016.000000	61.689924 
1015.000000	61.593457 
1014.000000	61.508807 
1013.000000	61.419014 
1012.000000	61.317730 
1011.000000	61.220966 
1010.000000	61.137113 
1009.000000	61.055475 
1008.000000	60.973990 
1007.000000	60.907922 
1006.000000	60.860777 
1005.000000	60.816061 
1004.000000	60.767993 
1003.000000	60.732171 
1002.000000	60.716762 
1001.000000	60.710840 
1000.000000	60.708565 
999.000000	 60.716466 
998.000000	 60.730126 
997.000000	 60.733603 
996.000000	 60.729636 
995.000000	 60.740820 
994.000000	 60.773236 
993.000000	 60.808080 
992.000000	 60.835951 
991.000000	 60.869520 
990.000000	 60.915099 
989.000000	 60.962794 
988.000000	 61.013648 
987.000000	 61.086213 
986.000000	 61.186103 
985.000000	 61.297187 
984.000000	 61.411430 
983.000000	 61.540234 
982.000000	 61.689441 
981.000000	 61.851606 
980.000000	 62.030224 
979.000000	 62.242507 
978.000000	 62.489112 
977.000000	 62.748514 
976.000000	 63.009902 
975.000000	 63.286305 
974.000000	 63.588331 
973.000000	 63.910690 
972.000000	 64.250300 
971.000000	 64.611761 
970.000000	 64.989023 
969.000000	 65.366822 
968.000000	 65.745445 
967.000000	 66.139583 
966.000000	 66.548652 
965.000000	 66.952856 
964.000000	 67.342061 
963.000000	 67.724206 
962.000000	 68.102948 
961.000000	 68.472559 
960.000000	 68.837622 
959.000000	 69.211369 
958.000000	 69.589590 
957.000000	 69.950385 
956.000000	 70.284084 
955.000000	 70.600789 
954.000000	 70.906570 
953.000000	 71.196117 
952.000000	 71.470805 
951.000000	 71.739047 
950.000000	 71.995988 
949.000000	 72.227566 
948.000000	 72.437179 
947.000000	 72.642948 
946.000000	 72.845415 
945.000000	 73.024103 
944.000000	 73.170678 
943.000000	 73.300229 
942.000000	 73.425417 
941.000000	 73.544872 
940.000000	 73.662453 
939.000000	 73.790777 
938.000000	 73.927386 
937.000000	 74.052596 
936.000000	 74.159908 
935.000000	 74.265727 
934.000000	 74.381819 
933.000000	 74.501550 
932.000000	 74.620386 
931.000000	 74.745306 
930.000000	 74.875563 
929.000000	 74.998392 
928.000000	 75.113455 
927.000000	 75.238787 
926.000000	 75.382401 
925.000000	 75.528622 
924.000000	 75.661082 
923.000000	 75.779107 
922.000000	 75.884638 
921.000000	 75.974904 
920.000000	 76.056118 
919.000000	 76.142852 
918.000000	 76.235041 
917.000000	 76.315984 
916.000000	 76.381161 
915.000000	 76.448585 
914.000000	 76.533550 
913.000000	 76.635624 
912.000000	 76.758646 
911.000000	 76.919159 
910.000000	 77.122664 
909.000000	 77.352530 
908.000000	 77.594770 
907.000000	 77.855926 
906.000000	 78.146337 
905.000000	 78.464292 
904.000000	 78.806052 
903.000000	 79.173383 
902.000000	 79.561581 
901.000000	 79.955908 
900.000000	 80.347934 
899.000000	 80.741384 
898.000000	 81.136998 
897.000000	 81.526565 
896.000000	 81.905107 
895.000000	 82.273422 
894.000000	 82.626789 
893.000000	 82.958461 
892.000000	 83.276409 
891.000000	 83.597750 
890.000000	 83.922284 
889.000000	 84.229556 
888.000000	 84.507083 
887.000000	 84.764412 
886.000000	 85.014939 
885.000000	 85.261690 
884.000000	 85.506756 
883.000000	 85.756654 
882.000000	 86.011150 
881.000000	 86.263844 
880.000000	 86.520861 
879.000000	 86.801240 
878.000000	 87.110261 
877.000000	 87.428852 
876.000000	 87.737788 
875.000000	 88.037014 
874.000000	 88.334766 
873.000000	 88.634232 
872.000000	 88.938444 
871.000000	 89.252905 
870.000000	 89.575536 
869.000000	 89.896319 
868.000000	 90.211154 
867.000000	 90.523357 
866.000000	 90.829478 
865.000000	 91.119043 
864.000000	 91.392241 
863.000000	 91.662384 
862.000000	 91.934928 
861.000000	 92.198496 
860.000000	 92.444236 
859.000000	 92.680603 
858.000000	 92.920132 
857.000000	 93.162046 
856.000000	 93.395762 
855.000000	 93.611727 
854.000000	 93.802135 
853.000000	 93.961818 
852.000000	 94.097098 
851.000000	 94.225305 
850.000000	 94.357191 
849.000000	 94.486249 
848.000000	 94.600404 
847.000000	 94.694335 
846.000000	 94.764318 
845.000000	 94.803232 
844.000000	 94.811130 
843.000000	 94.800849 
842.000000	 94.780533 
841.000000	 94.737231 
840.000000	 94.650933 
839.000000	 94.521707 
838.000000	 94.372734 
837.000000	 94.228882 
836.000000	 94.100511 
835.000000	 93.983837 
834.000000	 93.867426 
833.000000	 93.742475 
832.000000	 93.617311 
831.000000	 93.519854 
830.000000	 93.476034 
829.000000	 93.485557 
828.000000	 93.524446 
827.000000	 93.568477 
826.000000	 93.608929 
825.000000	 93.650604 
824.000000	 93.702739 
823.000000	 93.769273 
822.000000	 93.840578 
821.000000	 93.895974 
820.000000	 93.918331 
819.000000	 93.904363 
818.000000	 93.859412 
817.000000	 93.785763 
816.000000	 93.677852 
815.000000	 93.525618 
814.000000	 93.319490 
813.000000	 93.052777 
812.000000	 92.719392 
811.000000	 92.307428 
810.000000	 91.796993 
809.000000	 91.170660 
808.000000	 90.428573 
807.000000	 89.590770 
806.000000	 88.685821 
805.000000	 87.743919 
804.000000	 86.799982 
803.000000	 85.889969 
802.000000	 85.039016 
801.000000	 84.265465 
800.000000	 83.599574 
799.000000	 83.081057 
798.000000	 82.732145 
797.000000	 82.548619 
796.000000	 82.518087 
795.000000	 82.624113 
794.000000	 82.828569 
793.000000	 83.075985 
792.000000	 83.326416 
791.000000	 83.566778 
790.000000	 83.785089 
789.000000	 83.953143 
788.000000	 84.041277 
787.000000	 84.033832 
786.000000	 83.924779 
785.000000	 83.714717 
784.000000	 83.420164 
783.000000	 83.073377 
782.000000	 82.707521 
781.000000	 82.353576 
780.000000	 82.051627 
779.000000	 81.845104 
778.000000	 81.757599 
777.000000	 81.791055 
776.000000	 81.945819 
775.000000	 82.218451 
774.000000	 82.577692 
773.000000	 82.970759 
772.000000	 83.363296 
771.000000	 83.752340 
770.000000	 84.134854 
769.000000	 84.488274 
768.000000	 84.792368 
767.000000	 85.048779 
766.000000	 85.266703 
765.000000	 85.447411 
764.000000	 85.595922 
763.000000	 85.731775 
762.000000	 85.872506 
761.000000	 86.016118 
760.000000	 86.151287 
759.000000	 86.275920 
758.000000	 86.396817 
757.000000	 86.520431 
756.000000	 86.651846 
755.000000	 86.793754 
754.000000	 86.940249 
753.000000	 87.081520 
752.000000	 87.219694 
751.000000	 87.368717 
750.000000	 87.533254 
749.000000	 87.700390 
748.000000	 87.860032 
747.000000	 88.022534 
746.000000	 88.207155 
745.000000	 88.421052 
744.000000	 88.657585 
743.000000	 88.908822 
742.000000	 89.172563 
741.000000	 89.450025 
740.000000	 89.739191 
739.000000	 90.027854 
738.000000	 90.296502 
737.000000	 90.535870 
736.000000	 90.758531 
735.000000	 90.983021 
734.000000	 91.208783 
733.000000	 91.417147 
732.000000	 91.593482 
731.000000	 91.736140 
730.000000	 91.847517 
729.000000	 91.932446 
728.000000	 92.006876 
727.000000	 92.090156 
726.000000	 92.182509 
725.000000	 92.267040 
724.000000	 92.340405 
723.000000	 92.425877 
722.000000	 92.547609 
721.000000	 92.703203 
720.000000	 92.868556 
719.000000	 93.019328 
718.000000	 93.142111 
717.000000	 93.237363 
716.000000	 93.320500 
715.000000	 93.411061 
714.000000	 93.511876 
713.000000	 93.604762 
712.000000	 93.670855 
711.000000	 93.705394 
710.000000	 93.710431 
709.000000	 93.687615 
708.000000	 93.646298 
707.000000	 93.604613 
706.000000	 93.566303 
705.000000	 93.505651 
704.000000	 93.387316 
703.000000	 93.192111 
702.000000	 92.915886 
701.000000	 92.554086 
700.000000	 92.101651 
699.000000	 91.568631 
698.000000	 90.989769 
697.000000	 90.427587 
696.000000	 89.969867 
695.000000	 89.703572 
694.000000	 89.673331 
693.000000	 89.857876 
692.000000	 90.182826 
691.000000	 90.559636 
690.000000	 90.922335 
689.000000	 91.244128 
688.000000	 91.528171 
687.000000	 91.782043 
686.000000	 92.005696 
685.000000	 92.203720 
684.000000	 92.395095 
683.000000	 92.596665 
682.000000	 92.798805 
681.000000	 92.972372 
680.000000	 93.104618 
679.000000	 93.219452 
678.000000	 93.353642 
677.000000	 93.516636 
676.000000	 93.688923 
675.000000	 93.852886 
674.000000	 94.008187 
673.000000	 94.162098 
672.000000	 94.324351 
671.000000	 94.509000 
670.000000	 94.726976 
669.000000	 94.954875 
668.000000	 95.108062 
667.000000	 95.156127 
666.000000	 95.177352 
665.000000	 95.218545 
664.000000	 95.285715 
663.000000	 95.376703 
662.000000	 95.480454 
661.000000	 95.581916 
660.000000	 95.674973 
659.000000	 95.759286 
658.000000	 95.820355 
657.000000	 95.835102 
656.000000	 95.811156 
655.000000	 95.792805 
654.000000	 95.804563 
653.000000	 95.822231 
652.000000	 95.826245 
651.000000	 95.843245 
650.000000	 95.901092 

