PE IR                   SPECTRUM    ASCII       PEDS        1.60        
  -1
~SP.SP
22/12/06
15:21:49.00
23/01/09
14:45:12.00
Administrator

650.000000
4









FRONTIER FT-IR,CPU32 MAIN 00.09.9951 07-SEPTEMBER-2011 11:49:41
MIR TGS
MIR
OPTKBR
90694
0.200000

4.000000
STRONG
RATIO
SPECTRUM
MAGNITUDE
MIRACLE ATR
DOUBLE

COMBINED


0


#HDR
-1
-1
#GR
CM-1
%T
0.00002384185791015625
0.0
4000.000000
-1.000000
3351
8
94.753521
85.595810
#DATA
4000.000000	94.700743 
3999.000000	94.700373 
3998.000000	94.696905 
3997.000000	94.692026 
3996.000000	94.687820 
3995.000000	94.685177 
3994.000000	94.684080 
3993.000000	94.684185 
3992.000000	94.685179 
3991.000000	94.686981 
3990.000000	94.689623 
3989.000000	94.692945 
3988.000000	94.696428 
3987.000000	94.699358 
3986.000000	94.701298 
3985.000000	94.702291 
3984.000000	94.702517 
3983.000000	94.702015 
3982.000000	94.700752 
3981.000000	94.698856 
3980.000000	94.696867 
3979.000000	94.695512 
3978.000000	94.695054 
3977.000000	94.695016 
3976.000000	94.694640 
3975.000000	94.693661 
3974.000000	94.692584 
3973.000000	94.692186 
3972.000000	94.692748 
3971.000000	94.693882 
3970.000000	94.694905 
3969.000000	94.695381 
3968.000000	94.695281 
3967.000000	94.694779 
3966.000000	94.694046 
3965.000000	94.693212 
3964.000000	94.692414 
3963.000000	94.691740 
3962.000000	94.691129 
3961.000000	94.690481 
3960.000000	94.689894 
3959.000000	94.689715 
3958.000000	94.690218 
3957.000000	94.691280 
3956.000000	94.692406 
3955.000000	94.693075 
3954.000000	94.693118 
3953.000000	94.692715 
3952.000000	94.692157 
3951.000000	94.691613 
3950.000000	94.691092 
3949.000000	94.690548 
3948.000000	94.689972 
3947.000000	94.689410 
3946.000000	94.688939 
3945.000000	94.688623 
3944.000000	94.688471 
3943.000000	94.688401 
3942.000000	94.688220 
3941.000000	94.687777 
3940.000000	94.687073 
3939.000000	94.686219 
3938.000000	94.685343 
3937.000000	94.684516 
3936.000000	94.683784 
3935.000000	94.683209 
3934.000000	94.682840 
3933.000000	94.682594 
3932.000000	94.682223 
3931.000000	94.681520 
3930.000000	94.680509 
3929.000000	94.679458 
3928.000000	94.678619 
3927.000000	94.678000 
3926.000000	94.677379 
3925.000000	94.676518 
3924.000000	94.675369 
3923.000000	94.674074 
3922.000000	94.672817 
3921.000000	94.671688 
3920.000000	94.670691 
3919.000000	94.669812 
3918.000000	94.669058 
3917.000000	94.668414 
3916.000000	94.667800 
3915.000000	94.667113 
3914.000000	94.666285 
3913.000000	94.665279 
3912.000000	94.664040 
3911.000000	94.662504 
3910.000000	94.660727 
3909.000000	94.658992 
3908.000000	94.657710 
3907.000000	94.657176 
3906.000000	94.657328 
3905.000000	94.657612 
3904.000000	94.657257 
3903.000000	94.655879 
3902.000000	94.653683 
3901.000000	94.651201 
3900.000000	94.648796 
3899.000000	94.646537 
3898.000000	94.644432 
3897.000000	94.642606 
3896.000000	94.641255 
3895.000000	94.640541 
3894.000000	94.640502 
3893.000000	94.640875 
3892.000000	94.641059 
3891.000000	94.640464 
3890.000000	94.639036 
3889.000000	94.637285 
3888.000000	94.635826 
3887.000000	94.634879 
3886.000000	94.634188 
3885.000000	94.633304 
3884.000000	94.632075 
3883.000000	94.630777 
3882.000000	94.629761 
3881.000000	94.629050 
3880.000000	94.628281 
3879.000000	94.627129 
3878.000000	94.625677 
3877.000000	94.624274 
3876.000000	94.623114 
3875.000000	94.622009 
3874.000000	94.620592 
3873.000000	94.618767 
3872.000000	94.616921 
3871.000000	94.615594 
3870.000000	94.614880 
3869.000000	94.614297 
3868.000000	94.613432 
3867.000000	94.612449 
3866.000000	94.611858 
3865.000000	94.611974 
3864.000000	94.612475 
3863.000000	94.612575 
3862.000000	94.611782 
3861.000000	94.610275 
3860.000000	94.608686 
3859.000000	94.607619 
3858.000000	94.607234 
3857.000000	94.607239 
3856.000000	94.607076 
3855.000000	94.606240 
3854.000000	94.604594 
3853.000000	94.602519 
3852.000000	94.600714 
3851.000000	94.599593 
3850.000000	94.599037 
3849.000000	94.598584 
3848.000000	94.597769 
3847.000000	94.596392 
3846.000000	94.594620 
3845.000000	94.592884 
3844.000000	94.591552 
3843.000000	94.590728 
3842.000000	94.590349 
3841.000000	94.590315 
3840.000000	94.590396 
3839.000000	94.590098 
3838.000000	94.588965 
3837.000000	94.587295 
3836.000000	94.586188 
3835.000000	94.586529 
3834.000000	94.588252 
3833.000000	94.590373 
3832.000000	94.591718 
3831.000000	94.591809 
3830.000000	94.591146 
3829.000000	94.590787 
3828.000000	94.591361 
3827.000000	94.592459 
3826.000000	94.592993 
3825.000000	94.592321 
3824.000000	94.591026 
3823.000000	94.590662 
3822.000000	94.592260 
3821.000000	94.594569 
3820.000000	94.594949 
3819.000000	94.592648 
3818.000000	94.589694 
3817.000000	94.588907 
3816.000000	94.591218 
3815.000000	94.594623 
3814.000000	94.596340 
3813.000000	94.595385 
3812.000000	94.592320 
3811.000000	94.588055 
3810.000000	94.583307 
3809.000000	94.578910 
3808.000000	94.575881 
3807.000000	94.574479 
3806.000000	94.573788 
3805.000000	94.573238 
3804.000000	94.573775 
3803.000000	94.576859 
3802.000000	94.582267 
3801.000000	94.587148 
3800.000000	94.589343 
3799.000000	94.590521 
3798.000000	94.593777 
3797.000000	94.600016 
3796.000000	94.607192 
3795.000000	94.612356 
3794.000000	94.614313 
3793.000000	94.613936 
3792.000000	94.612706 
3791.000000	94.611414 
3790.000000	94.609518 
3789.000000	94.605558 
3788.000000	94.598681 
3787.000000	94.590016 
3786.000000	94.582426 
3785.000000	94.578166 
3784.000000	94.576778 
3783.000000	94.576089 
3782.000000	94.575137 
3781.000000	94.575322 
3780.000000	94.578339 
3779.000000	94.583298 
3778.000000	94.587202 
3777.000000	94.588332 
3776.000000	94.587705 
3775.000000	94.587462 
3774.000000	94.588886 
3773.000000	94.591833 
3772.000000	94.595197 
3771.000000	94.597515 
3770.000000	94.597540 
3769.000000	94.595071 
3768.000000	94.591619 
3767.000000	94.589307 
3766.000000	94.588817 
3765.000000	94.589085 
3764.000000	94.588809 
3763.000000	94.587723 
3762.000000	94.586335 
3761.000000	94.584935 
3760.000000	94.583480 
3759.000000	94.582356 
3758.000000	94.582566 
3757.000000	94.584277 
3756.000000	94.585374 
3755.000000	94.582753 
3754.000000	94.575438 
3753.000000	94.566279 
3752.000000	94.559666 
3751.000000	94.556224 
3750.000000	94.551990 
3749.000000	94.544976 
3748.000000	94.538323 
3747.000000	94.535871 
3746.000000	94.538609 
3745.000000	94.543737 
3744.000000	94.545249 
3743.000000	94.540209 
3742.000000	94.532425 
3741.000000	94.526738 
3740.000000	94.524751 
3739.000000	94.524913 
3738.000000	94.524112 
3737.000000	94.521644 
3736.000000	94.522402 
3735.000000	94.533052 
3734.000000	94.552599 
3733.000000	94.570856 
3732.000000	94.578313 
3731.000000	94.573567 
3730.000000	94.561130 
3729.000000	94.545429 
3728.000000	94.528907 
3727.000000	94.514424 
3726.000000	94.505904 
3725.000000	94.504974 
3724.000000	94.507948 
3723.000000	94.508025 
3722.000000	94.501166 
3721.000000	94.489931 
3720.000000	94.480688 
3719.000000	94.476251 
3718.000000	94.473091 
3717.000000	94.465993 
3716.000000	94.453643 
3715.000000	94.438961 
3714.000000	94.424965 
3713.000000	94.411732 
3712.000000	94.397949 
3711.000000	94.384971 
3710.000000	94.376198 
3709.000000	94.372055 
3708.000000	94.368584 
3707.000000	94.361317 
3706.000000	94.349343 
3705.000000	94.335574 
3704.000000	94.323911 
3703.000000	94.315559 
3702.000000	94.307310 
3701.000000	94.294145 
3700.000000	94.274236 
3699.000000	94.250425 
3698.000000	94.227003 
3697.000000	94.206198 
3696.000000	94.187342 
3695.000000	94.168630 
3694.000000	94.149729 
3693.000000	94.132335 
3692.000000	94.117973 
3691.000000	94.106198 
3690.000000	94.095219 
3689.000000	94.084021 
3688.000000	94.073306 
3687.000000	94.064584 
3686.000000	94.058179 
3685.000000	94.053058 
3684.000000	94.048998 
3683.000000	94.047109 
3682.000000	94.047291 
3681.000000	94.045476 
3680.000000	94.034775 
3679.000000	94.010731 
3678.000000	93.976773 
3677.000000	93.946120 
3676.000000	93.933900 
3675.000000	93.940614 
3674.000000	93.951046 
3673.000000	93.953240 
3672.000000	93.946804 
3671.000000	93.937619 
3670.000000	93.931340 
3669.000000	93.928831 
3668.000000	93.927469 
3667.000000	93.925310 
3666.000000	93.921705 
3665.000000	93.916761 
3664.000000	93.911644 
3663.000000	93.907895 
3662.000000	93.905843 
3661.000000	93.903855 
3660.000000	93.899990 
3659.000000	93.895012 
3658.000000	93.893212 
3657.000000	93.898667 
3656.000000	93.909754 
3655.000000	93.919824 
3654.000000	93.924191 
3653.000000	93.923367 
3652.000000	93.920765 
3651.000000	93.920504 
3650.000000	93.926264 
3649.000000	93.939534 
3648.000000	93.957350 
3647.000000	93.973635 
3646.000000	93.984489 
3645.000000	93.991040 
3644.000000	93.997413 
3643.000000	94.006156 
3642.000000	94.015752 
3641.000000	94.022230 
3640.000000	94.023177 
3639.000000	94.020146 
3638.000000	94.017487 
3637.000000	94.019446 
3636.000000	94.027647 
3635.000000	94.039837 
3634.000000	94.051050 
3633.000000	94.057151 
3632.000000	94.058272 
3631.000000	94.058450 
3630.000000	94.062213 
3629.000000	94.070064 
3628.000000	94.077647 
3627.000000	94.081751 
3626.000000	94.083206 
3625.000000	94.083764 
3624.000000	94.084657 
3623.000000	94.087259 
3622.000000	94.092753 
3621.000000	94.101018 
3620.000000	94.110030 
3619.000000	94.117025 
3618.000000	94.120984 
3617.000000	94.123271 
3616.000000	94.125919 
3615.000000	94.130012 
3614.000000	94.135416 
3613.000000	94.141166 
3612.000000	94.146180 
3611.000000	94.150114 
3610.000000	94.153672 
3609.000000	94.158122 
3608.000000	94.164170 
3607.000000	94.171103 
3606.000000	94.177325 
3605.000000	94.181850 
3604.000000	94.185062 
3603.000000	94.188257 
3602.000000	94.192403 
3601.000000	94.197403 
3600.000000	94.202524 
3599.000000	94.207330 
3598.000000	94.211974 
3597.000000	94.216727 
3596.000000	94.221437 
3595.000000	94.225652 
3594.000000	94.228965 
3593.000000	94.231323 
3592.000000	94.233355 
3591.000000	94.236442 
3590.000000	94.241999 
3589.000000	94.250170 
3588.000000	94.258758 
3587.000000	94.264329 
3586.000000	94.265273 
3585.000000	94.262677 
3584.000000	94.258553 
3583.000000	94.254307 
3582.000000	94.250919 
3581.000000	94.249464 
3580.000000	94.250693 
3579.000000	94.254339 
3578.000000	94.259293 
3577.000000	94.264707 
3576.000000	94.270521 
3575.000000	94.276704 
3574.000000	94.282225 
3573.000000	94.285239 
3572.000000	94.284549 
3571.000000	94.280911 
3570.000000	94.276827 
3569.000000	94.274995 
3568.000000	94.276502 
3567.000000	94.280152 
3566.000000	94.283730 
3565.000000	94.286233 
3564.000000	94.288312 
3563.000000	94.290989 
3562.000000	94.294614 
3561.000000	94.298606 
3560.000000	94.301802 
3559.000000	94.303213 
3558.000000	94.302757 
3557.000000	94.301331 
3556.000000	94.300204 
3555.000000	94.300393 
3554.000000	94.302340 
3553.000000	94.305548 
3552.000000	94.308393 
3551.000000	94.309051 
3550.000000	94.307053 
3549.000000	94.303763 
3548.000000	94.301182 
3547.000000	94.300368 
3546.000000	94.301208 
3545.000000	94.303296 
3544.000000	94.306511 
3543.000000	94.310628 
3542.000000	94.315093 
3541.000000	94.319456 
3540.000000	94.323603 
3539.000000	94.327444 
3538.000000	94.330735 
3537.000000	94.333441 
3536.000000	94.336011 
3535.000000	94.339049 
3534.000000	94.342687 
3533.000000	94.346459 
3532.000000	94.349662 
3531.000000	94.351778 
3530.000000	94.352784 
3529.000000	94.353168 
3528.000000	94.353505 
3527.000000	94.353894 
3526.000000	94.354070 
3525.000000	94.354103 
3524.000000	94.354673 
3523.000000	94.356385 
3522.000000	94.359074 
3521.000000	94.362036 
3520.000000	94.364852 
3519.000000	94.367614 
3518.000000	94.370369 
3517.000000	94.372696 
3516.000000	94.374018 
3515.000000	94.374235 
3514.000000	94.373937 
3513.000000	94.374096 
3512.000000	94.375576 
3511.000000	94.378732 
3510.000000	94.383204 
3509.000000	94.387980 
3508.000000	94.391891 
3507.000000	94.394408 
3506.000000	94.395896 
3505.000000	94.397243 
3504.000000	94.399235 
3503.000000	94.402028 
3502.000000	94.405276 
3501.000000	94.408517 
3500.000000	94.411463 
3499.000000	94.414010 
3498.000000	94.416132 
3497.000000	94.417865 
3496.000000	94.419343 
3495.000000	94.420788 
3494.000000	94.422417 
3493.000000	94.424348 
3492.000000	94.426582 
3491.000000	94.429013 
3490.000000	94.431478 
3489.000000	94.433843 
3488.000000	94.436079 
3487.000000	94.438272 
3486.000000	94.440567 
3485.000000	94.443061 
3484.000000	94.445710 
3483.000000	94.448308 
3482.000000	94.450643 
3481.000000	94.452704 
3480.000000	94.454769 
3479.000000	94.457157 
3478.000000	94.459853 
3477.000000	94.462437 
3476.000000	94.464516 
3475.000000	94.466233 
3474.000000	94.468234 
3473.000000	94.470997 
3472.000000	94.474363 
3471.000000	94.477725 
3470.000000	94.480591 
3469.000000	94.482780 
3468.000000	94.484369 
3467.000000	94.485800 
3466.000000	94.487950 
3465.000000	94.491611 
3464.000000	94.496580 
3463.000000	94.501368 
3462.000000	94.504416 
3461.000000	94.505381 
3460.000000	94.505267 
3459.000000	94.505320 
3458.000000	94.505942 
3457.000000	94.506929 
3456.000000	94.508291 
3455.000000	94.510440 
3454.000000	94.513595 
3453.000000	94.517441 
3452.000000	94.521560 
3451.000000	94.525896 
3450.000000	94.530539 
3449.000000	94.535308 
3448.000000	94.540052 
3447.000000	94.545184 
3446.000000	94.551225 
3445.000000	94.557625 
3444.000000	94.562809 
3443.000000	94.565916 
3442.000000	94.568085 
3441.000000	94.571278 
3440.000000	94.575762 
3439.000000	94.579722 
3438.000000	94.581659 
3437.000000	94.582359 
3436.000000	94.583919 
3435.000000	94.587085 
3434.000000	94.590200 
3433.000000	94.591100 
3432.000000	94.589592 
3431.000000	94.587756 
3430.000000	94.587916 
3429.000000	94.590471 
3428.000000	94.593990 
3427.000000	94.597081 
3426.000000	94.599647 
3425.000000	94.602323 
3424.000000	94.605407 
3423.000000	94.608800 
3422.000000	94.612392 
3421.000000	94.615903 
3420.000000	94.618763 
3419.000000	94.620879 
3418.000000	94.623216 
3417.000000	94.626757 
3416.000000	94.631057 
3415.000000	94.634653 
3414.000000	94.636906 
3413.000000	94.638594 
3412.000000	94.640519 
3411.000000	94.642342 
3410.000000	94.643330 
3409.000000	94.643668 
3408.000000	94.644381 
3407.000000	94.646128 
3406.000000	94.648595 
3405.000000	94.651028 
3404.000000	94.652919 
3403.000000	94.654132 
3402.000000	94.654788 
3401.000000	94.655259 
3400.000000	94.656084 
3399.000000	94.657643 
3398.000000	94.659903 
3397.000000	94.662482 
3396.000000	94.664898 
3395.000000	94.666837 
3394.000000	94.668236 
3393.000000	94.669226 
3392.000000	94.670029 
3391.000000	94.670768 
3390.000000	94.671453 
3389.000000	94.672198 
3388.000000	94.673342 
3387.000000	94.675216 
3386.000000	94.677803 
3385.000000	94.680594 
3384.000000	94.682860 
3383.000000	94.684193 
3382.000000	94.684715 
3381.000000	94.684913 
3380.000000	94.685262 
3379.000000	94.685978 
3378.000000	94.687060 
3377.000000	94.688369 
3376.000000	94.689659 
3375.000000	94.690710 
3374.000000	94.691543 
3373.000000	94.692446 
3372.000000	94.693644 
3371.000000	94.694960 
3370.000000	94.695934 
3369.000000	94.696305 
3368.000000	94.696270 
3367.000000	94.696239 
3366.000000	94.696439 
3365.000000	94.696810 
3364.000000	94.697242 
3363.000000	94.697761 
3362.000000	94.698452 
3361.000000	94.699221 
3360.000000	94.699758 
3359.000000	94.699860 
3358.000000	94.699765 
3357.000000	94.699951 
3356.000000	94.700470 
3355.000000	94.700668 
3354.000000	94.699806 
3353.000000	94.697872 
3352.000000	94.695784 
3351.000000	94.694662 
3350.000000	94.695016 
3349.000000	94.696667 
3348.000000	94.698903 
3347.000000	94.700743 
3346.000000	94.701422 
3345.000000	94.700857 
3344.000000	94.699772 
3343.000000	94.699078 
3342.000000	94.698978 
3341.000000	94.698963 
3340.000000	94.698527 
3339.000000	94.697638 
3338.000000	94.696570 
3337.000000	94.695626 
3336.000000	94.695099 
3335.000000	94.695222 
3334.000000	94.695851 
3333.000000	94.696311 
3332.000000	94.695835 
3331.000000	94.694224 
3330.000000	94.692017 
3329.000000	94.689996 
3328.000000	94.688552 
3327.000000	94.687582 
3326.000000	94.686798 
3325.000000	94.685991 
3324.000000	94.685016 
3323.000000	94.683716 
3322.000000	94.681979 
3321.000000	94.679838 
3320.000000	94.677388 
3319.000000	94.674637 
3318.000000	94.671616 
3317.000000	94.668659 
3316.000000	94.666293 
3315.000000	94.664666 
3314.000000	94.663228 
3313.000000	94.661198 
3312.000000	94.658466 
3311.000000	94.655782 
3310.000000	94.653939 
3309.000000	94.652925 
3308.000000	94.651968 
3307.000000	94.650238 
3306.000000	94.647453 
3305.000000	94.643864 
3304.000000	94.640021 
3303.000000	94.636584 
3302.000000	94.634022 
3301.000000	94.632303 
3300.000000	94.630811 
3299.000000	94.628769 
3298.000000	94.625872 
3297.000000	94.622390 
3296.000000	94.618745 
3295.000000	94.615114 
3294.000000	94.611478 
3293.000000	94.607911 
3292.000000	94.604640 
3291.000000	94.601829 
3290.000000	94.599333 
3289.000000	94.596687 
3288.000000	94.593397 
3287.000000	94.589361 
3286.000000	94.585087 
3285.000000	94.581379 
3284.000000	94.578665 
3283.000000	94.576739 
3282.000000	94.575113 
3281.000000	94.573465 
3280.000000	94.571557 
3279.000000	94.568923 
3278.000000	94.565026 
3277.000000	94.559838 
3276.000000	94.554193 
3275.000000	94.549327 
3274.000000	94.546009 
3273.000000	94.544166 
3272.000000	94.542956 
3271.000000	94.541221 
3270.000000	94.538197 
3269.000000	94.534145 
3268.000000	94.530316 
3267.000000	94.527910 
3266.000000	94.526979 
3265.000000	94.526538 
3264.000000	94.525686 
3263.000000	94.524338 
3262.000000	94.522765 
3261.000000	94.520761 
3260.000000	94.517697 
3259.000000	94.513448 
3258.000000	94.508979 
3257.000000	94.505647 
3256.000000	94.503788 
3255.000000	94.502226 
3254.000000	94.499500 
3253.000000	94.495578 
3252.000000	94.491918 
3251.000000	94.489704 
3250.000000	94.488498 
3249.000000	94.487011 
3248.000000	94.484671 
3247.000000	94.481731 
3246.000000	94.478256 
3245.000000	94.474050 
3244.000000	94.469561 
3243.000000	94.465702 
3242.000000	94.462430 
3241.000000	94.458494 
3240.000000	94.453208 
3239.000000	94.447695 
3238.000000	94.443529 
3237.000000	94.440628 
3236.000000	94.437506 
3235.000000	94.433474 
3234.000000	94.429505 
3233.000000	94.426634 
3232.000000	94.424487 
3231.000000	94.421926 
3230.000000	94.418670 
3229.000000	94.415601 
3228.000000	94.413641 
3227.000000	94.412790 
3226.000000	94.412141 
3225.000000	94.410642 
3224.000000	94.407960 
3223.000000	94.404808 
3222.000000	94.402367 
3221.000000	94.401148 
3220.000000	94.400396 
3219.000000	94.398757 
3218.000000	94.395616 
3217.000000	94.391644 
3216.000000	94.388118 
3215.000000	94.385728 
3214.000000	94.384099 
3213.000000	94.382321 
3212.000000	94.379751 
3211.000000	94.376331 
3210.000000	94.372422 
3209.000000	94.368573 
3208.000000	94.365329 
3207.000000	94.362934 
3206.000000	94.361142 
3205.000000	94.359328 
3204.000000	94.356992 
3203.000000	94.354184 
3202.000000	94.351397 
3201.000000	94.349069 
3200.000000	94.347216 
3199.000000	94.345552 
3198.000000	94.343847 
3197.000000	94.342099 
3196.000000	94.340406 
3195.000000	94.338814 
3194.000000	94.337316 
3193.000000	94.335857 
3192.000000	94.334273 
3191.000000	94.332328 
3190.000000	94.329911 
3189.000000	94.327188 
3188.000000	94.324567 
3187.000000	94.322390 
3186.000000	94.320696 
3185.000000	94.319232 
3184.000000	94.317617 
3183.000000	94.315622 
3182.000000	94.313317 
3181.000000	94.311058 
3180.000000	94.309195 
3179.000000	94.307773 
3178.000000	94.306537 
3177.000000	94.305261 
3176.000000	94.303990 
3175.000000	94.302831 
3174.000000	94.301663 
3173.000000	94.300222 
3172.000000	94.298414 
3171.000000	94.296403 
3170.000000	94.294356 
3169.000000	94.292317 
3168.000000	94.290373 
3167.000000	94.288747 
3166.000000	94.287577 
3165.000000	94.286694 
3164.000000	94.285684 
3163.000000	94.284260 
3162.000000	94.282476 
3161.000000	94.280633 
3160.000000	94.278996 
3159.000000	94.277581 
3158.000000	94.276196 
3157.000000	94.274665 
3156.000000	94.273051 
3155.000000	94.271642 
3154.000000	94.270676 
3153.000000	94.270107 
3152.000000	94.269633 
3151.000000	94.268916 
3150.000000	94.267855 
3149.000000	94.266602 
3148.000000	94.265371 
3147.000000	94.264239 
3146.000000	94.263127 
3145.000000	94.261963 
3144.000000	94.260809 
3143.000000	94.259781 
3142.000000	94.258886 
3141.000000	94.258040 
3140.000000	94.257229 
3139.000000	94.256530 
3138.000000	94.255975 
3137.000000	94.255452 
3136.000000	94.254804 
3135.000000	94.253975 
3134.000000	94.253016 
3133.000000	94.252017 
3132.000000	94.251060 
3131.000000	94.250206 
3130.000000	94.249492 
3129.000000	94.248928 
3128.000000	94.248492 
3127.000000	94.248120 
3126.000000	94.247715 
3125.000000	94.247200 
3124.000000	94.246582 
3123.000000	94.245947 
3122.000000	94.245368 
3121.000000	94.244810 
3120.000000	94.244198 
3119.000000	94.243525 
3118.000000	94.242876 
3117.000000	94.242338 
3116.000000	94.241921 
3115.000000	94.241570 
3114.000000	94.241203 
3113.000000	94.240746 
3112.000000	94.240166 
3111.000000	94.239488 
3110.000000	94.238822 
3109.000000	94.238319 
3108.000000	94.238094 
3107.000000	94.238152 
3106.000000	94.238314 
3105.000000	94.238367 
3104.000000	94.238217 
3103.000000	94.237840 
3102.000000	94.237123 
3101.000000	94.235960 
3100.000000	94.234629 
3099.000000	94.233797 
3098.000000	94.233870 
3097.000000	94.234485 
3096.000000	94.234831 
3095.000000	94.234354 
3094.000000	94.232822 
3093.000000	94.230094 
3092.000000	94.226553 
3091.000000	94.223605 
3090.000000	94.222877 
3089.000000	94.224715 
3088.000000	94.227891 
3087.000000	94.230825 
3086.000000	94.232605 
3085.000000	94.232898 
3084.000000	94.231850 
3083.000000	94.230271 
3082.000000	94.228988 
3081.000000	94.227749 
3080.000000	94.225783 
3079.000000	94.223815 
3078.000000	94.224275 
3077.000000	94.228547 
3076.000000	94.234595 
3075.000000	94.238282 
3074.000000	94.237022 
3073.000000	94.232042 
3072.000000	94.227588 
3071.000000	94.227817 
3070.000000	94.233590 
3069.000000	94.241738 
3068.000000	94.247806 
3067.000000	94.249723 
3066.000000	94.248644 
3065.000000	94.246998 
3064.000000	94.246705 
3063.000000	94.248502 
3062.000000	94.251057 
3061.000000	94.250828 
3060.000000	94.245102 
3059.000000	94.235799 
3058.000000	94.228040 
3057.000000	94.223963 
3056.000000	94.220440 
3055.000000	94.214802 
3054.000000	94.210015 
3053.000000	94.210783 
3052.000000	94.215898 
3051.000000	94.218388 
3050.000000	94.213749 
3049.000000	94.204800 
3048.000000	94.197246 
3047.000000	94.192794 
3046.000000	94.188646 
3045.000000	94.182002 
3044.000000	94.172694 
3043.000000	94.162052 
3042.000000	94.151416 
3041.000000	94.141970 
3040.000000	94.134200 
3039.000000	94.126543 
3038.000000	94.115702 
3037.000000	94.099697 
3036.000000	94.080521 
3035.000000	94.062831 
3034.000000	94.049703 
3033.000000	94.040245 
3032.000000	94.031628 
3031.000000	94.022186 
3030.000000	94.011104 
3029.000000	93.996080 
3028.000000	93.974033 
3027.000000	93.944855 
3026.000000	93.912840 
3025.000000	93.882983 
3024.000000	93.856579 
3023.000000	93.831528 
3022.000000	93.805859 
3021.000000	93.778884 
3020.000000	93.749549 
3019.000000	93.716422 
3018.000000	93.680346 
3017.000000	93.645085 
3016.000000	93.613599 
3015.000000	93.584797 
3014.000000	93.555430 
3013.000000	93.524126 
3012.000000	93.491648 
3011.000000	93.457919 
3010.000000	93.421502 
3009.000000	93.382618 
3008.000000	93.344187 
3007.000000	93.308281 
3006.000000	93.273057 
3005.000000	93.235289 
3004.000000	93.195148 
3003.000000	93.156213 
3002.000000	93.120978 
3001.000000	93.088821 
3000.000000	93.059109 
2999.000000	93.033962 
2998.000000	93.016276 
2997.000000	93.006173 
2996.000000	93.000345 
2995.000000	92.992938 
2994.000000	92.975690 
2993.000000	92.940348 
2992.000000	92.886184 
2991.000000	92.825947 
2990.000000	92.780590 
2989.000000	92.765568 
2988.000000	92.782848 
2987.000000	92.824726 
2986.000000	92.881236 
2985.000000	92.942697 
2984.000000	92.999378 
2983.000000	93.044608 
2982.000000	93.078707 
2981.000000	93.107014 
2980.000000	93.133249 
2979.000000	93.156150 
2978.000000	93.172036 
2977.000000	93.178326 
2976.000000	93.174728 
2975.000000	93.163725 
2974.000000	93.150500 
2973.000000	93.139768 
2972.000000	93.131306 
2971.000000	93.120763 
2970.000000	93.106417 
2969.000000	93.093142 
2968.000000	93.087626 
2967.000000	93.091008 
2966.000000	93.098440 
2965.000000	93.104817 
2964.000000	93.108290 
2963.000000	93.108658 
2962.000000	93.105735 
2961.000000	93.100919 
2960.000000	93.098156 
2959.000000	93.101109 
2958.000000	93.109900 
2957.000000	93.122188 
2956.000000	93.137069 
2955.000000	93.156227 
2954.000000	93.180802 
2953.000000	93.208428 
2952.000000	93.234521 
2951.000000	93.256004 
2950.000000	93.272651 
2949.000000	93.285032 
2948.000000	93.292865 
2947.000000	93.296673 
2946.000000	93.300373 
2945.000000	93.310122 
2944.000000	93.329423 
2943.000000	93.355864 
2942.000000	93.383274 
2941.000000	93.406784 
2940.000000	93.425380 
2939.000000	93.440879 
2938.000000	93.455679 
2937.000000	93.471456 
2936.000000	93.488935 
2935.000000	93.508136 
2934.000000	93.528672 
2933.000000	93.549316 
2932.000000	93.566729 
2931.000000	93.575563 
2930.000000	93.571831 
2929.000000	93.556927 
2928.000000	93.537327 
2927.000000	93.519341 
2926.000000	93.504999 
2925.000000	93.493357 
2924.000000	93.483950 
2923.000000	93.476716 
2922.000000	93.469501 
2921.000000	93.458511 
2920.000000	93.442243 
2919.000000	93.423362 
2918.000000	93.405586 
2917.000000	93.389520 
2916.000000	93.372327 
2915.000000	93.350739 
2914.000000	93.324048 
2913.000000	93.295420 
2912.000000	93.271230 
2911.000000	93.257342 
2910.000000	93.253656 
2909.000000	93.252705 
2908.000000	93.246084 
2907.000000	93.232571 
2906.000000	93.217472 
2905.000000	93.203615 
2904.000000	93.187258 
2903.000000	93.166270 
2902.000000	93.149835 
2901.000000	93.153902 
2900.000000	93.185180 
2899.000000	93.232364 
2898.000000	93.274587 
2897.000000	93.298647 
2896.000000	93.306755 
2895.000000	93.309508 
2894.000000	93.314863 
2893.000000	93.323532 
2892.000000	93.332260 
2891.000000	93.339096 
2890.000000	93.345230 
2889.000000	93.352421 
2888.000000	93.359777 
2887.000000	93.364346 
2886.000000	93.365332 
2885.000000	93.366739 
2884.000000	93.374660 
2883.000000	93.392289 
2882.000000	93.418149 
2881.000000	93.448283 
2880.000000	93.478856 
2879.000000	93.507431 
2878.000000	93.533534 
2877.000000	93.558282 
2876.000000	93.581903 
2875.000000	93.601387 
2874.000000	93.612385 
2873.000000	93.614516 
2872.000000	93.613506 
2871.000000	93.616783 
2870.000000	93.627614 
2869.000000	93.644215 
2868.000000	93.663482 
2867.000000	93.684165 
2866.000000	93.707014 
2865.000000	93.733210 
2864.000000	93.762886 
2863.000000	93.794723 
2862.000000	93.827139 
2861.000000	93.859876 
2860.000000	93.893272 
2859.000000	93.925353 
2858.000000	93.951318 
2857.000000	93.967807 
2856.000000	93.976673 
2855.000000	93.982833 
2854.000000	93.990044 
2853.000000	94.000097 
2852.000000	94.014140 
2851.000000	94.031433 
2850.000000	94.047091 
2849.000000	94.054878 
2848.000000	94.053949 
2847.000000	94.050681 
2846.000000	94.052031 
2845.000000	94.058681 
2844.000000	94.066531 
2843.000000	94.072993 
2842.000000	94.078903 
2841.000000	94.084990 
2840.000000	94.089698 
2839.000000	94.091728 
2838.000000	94.092906 
2837.000000	94.096793 
2836.000000	94.104806 
2835.000000	94.114785 
2834.000000	94.123523 
2833.000000	94.129863 
2832.000000	94.134856 
2831.000000	94.139448 
2830.000000	94.143114 
2829.000000	94.145052 
2828.000000	94.145720 
2827.000000	94.146329 
2826.000000	94.147363 
2825.000000	94.148696 
2824.000000	94.150887 
2823.000000	94.154932 
2822.000000	94.160528 
2821.000000	94.165761 
2820.000000	94.168933 
2819.000000	94.169780 
2818.000000	94.168810 
2817.000000	94.166782 
2816.000000	94.165296 
2815.000000	94.166467 
2814.000000	94.170891 
2813.000000	94.176701 
2812.000000	94.181463 
2811.000000	94.184241 
2810.000000	94.185279 
2809.000000	94.184777 
2808.000000	94.183110 
2807.000000	94.181387 
2806.000000	94.180561 
2805.000000	94.180328 
2804.000000	94.179821 
2803.000000	94.179114 
2802.000000	94.179221 
2801.000000	94.180765 
2800.000000	94.183446 
2799.000000	94.186647 
2798.000000	94.189884 
2797.000000	94.192627 
2796.000000	94.194266 
2795.000000	94.194471 
2794.000000	94.193478 
2793.000000	94.192128 
2792.000000	94.191633 
2791.000000	94.192938 
2790.000000	94.196004 
2789.000000	94.199776 
2788.000000	94.202960 
2787.000000	94.205040 
2786.000000	94.206387 
2785.000000	94.207591 
2784.000000	94.208880 
2783.000000	94.210071 
2782.000000	94.210934 
2781.000000	94.211533 
2780.000000	94.212244 
2779.000000	94.213415 
2778.000000	94.214997 
2777.000000	94.216549 
2776.000000	94.217664 
2775.000000	94.218360 
2774.000000	94.218986 
2773.000000	94.219803 
2772.000000	94.220778 
2771.000000	94.221712 
2770.000000	94.222430 
2769.000000	94.222859 
2768.000000	94.223160 
2767.000000	94.223768 
2766.000000	94.225061 
2765.000000	94.226952 
2764.000000	94.228876 
2763.000000	94.230364 
2762.000000	94.231534 
2761.000000	94.232817 
2760.000000	94.234318 
2759.000000	94.235630 
2758.000000	94.236369 
2757.000000	94.236680 
2756.000000	94.237131 
2755.000000	94.238124 
2754.000000	94.239478 
2753.000000	94.240574 
2752.000000	94.241008 
2751.000000	94.241141 
2750.000000	94.241836 
2749.000000	94.243569 
2748.000000	94.246001 
2747.000000	94.248472 
2746.000000	94.250751 
2745.000000	94.252962 
2744.000000	94.254942 
2743.000000	94.256094 
2742.000000	94.256010 
2741.000000	94.255048 
2740.000000	94.254145 
2739.000000	94.254061 
2738.000000	94.254882 
2737.000000	94.256200 
2736.000000	94.257691 
2735.000000	94.259493 
2734.000000	94.261907 
2733.000000	94.264799 
2732.000000	94.267520 
2731.000000	94.269548 
2730.000000	94.271035 
2729.000000	94.272533 
2728.000000	94.274242 
2727.000000	94.275789 
2726.000000	94.276759 
2725.000000	94.277209 
2724.000000	94.277613 
2723.000000	94.278469 
2722.000000	94.279939 
2721.000000	94.281581 
2720.000000	94.282438 
2719.000000	94.281772 
2718.000000	94.280022 
2717.000000	94.278869 
2716.000000	94.279963 
2715.000000	94.283539 
2714.000000	94.288261 
2713.000000	94.292333 
2712.000000	94.294707 
2711.000000	94.295225 
2710.000000	94.294227 
2709.000000	94.292389 
2708.000000	94.290755 
2707.000000	94.290416 
2706.000000	94.291781 
2705.000000	94.294103 
2704.000000	94.295865 
2703.000000	94.295837 
2702.000000	94.293945 
2701.000000	94.291303 
2700.000000	94.289367 
2699.000000	94.288806 
2698.000000	94.289103 
2697.000000	94.289277 
2696.000000	94.288941 
2695.000000	94.288499 
2694.000000	94.288265 
2693.000000	94.287670 
2692.000000	94.285693 
2691.000000	94.282155 
2690.000000	94.278370 
2689.000000	94.276205 
2688.000000	94.276426 
2687.000000	94.278167 
2686.000000	94.279972 
2685.000000	94.281254 
2684.000000	94.282463 
2683.000000	94.283993 
2682.000000	94.285487 
2681.000000	94.286395 
2680.000000	94.286752 
2679.000000	94.286997 
2678.000000	94.287261 
2677.000000	94.287303 
2676.000000	94.287043 
2675.000000	94.286693 
2674.000000	94.286401 
2673.000000	94.286313 
2672.000000	94.286914 
2671.000000	94.288649 
2670.000000	94.291022 
2669.000000	94.292615 
2668.000000	94.292518 
2667.000000	94.291242 
2666.000000	94.290127 
2665.000000	94.290002 
2664.000000	94.290749 
2663.000000	94.291948 
2662.000000	94.293373 
2661.000000	94.294832 
2660.000000	94.296046 
2659.000000	94.296971 
2658.000000	94.297888 
2657.000000	94.298960 
2656.000000	94.299892 
2655.000000	94.300278 
2654.000000	94.300140 
2653.000000	94.299929 
2652.000000	94.300075 
2651.000000	94.300636 
2650.000000	94.301396 
2649.000000	94.302128 
2648.000000	94.302772 
2647.000000	94.303406 
2646.000000	94.304095 
2645.000000	94.304819 
2644.000000	94.305522 
2643.000000	94.306157 
2642.000000	94.306685 
2641.000000	94.307063 
2640.000000	94.307296 
2639.000000	94.307490 
2638.000000	94.307797 
2637.000000	94.308232 
2636.000000	94.308612 
2635.000000	94.308770 
2634.000000	94.308783 
2633.000000	94.308906 
2632.000000	94.309253 
2631.000000	94.309699 
2630.000000	94.310119 
2629.000000	94.310556 
2628.000000	94.311051 
2627.000000	94.311447 
2626.000000	94.311586 
2625.000000	94.311618 
2624.000000	94.311881 
2623.000000	94.312439 
2622.000000	94.312939 
2621.000000	94.313031 
2620.000000	94.312841 
2619.000000	94.312954 
2618.000000	94.313818 
2617.000000	94.315143 
2616.000000	94.316022 
2615.000000	94.315870 
2614.000000	94.314962 
2613.000000	94.314084 
2612.000000	94.313636 
2611.000000	94.313401 
2610.000000	94.313180 
2609.000000	94.313276 
2608.000000	94.314049 
2607.000000	94.315119 
2606.000000	94.315405 
2605.000000	94.314153 
2604.000000	94.311727 
2603.000000	94.309311 
2602.000000	94.307760 
2601.000000	94.307106 
2600.000000	94.307194 
2599.000000	94.308296 
2598.000000	94.310617 
2597.000000	94.313489 
2596.000000	94.315681 
2595.000000	94.316662 
2594.000000	94.317076 
2593.000000	94.317757 
2592.000000	94.318579 
2591.000000	94.318673 
2590.000000	94.317695 
2589.000000	94.316510 
2588.000000	94.316488 
2587.000000	94.318241 
2586.000000	94.321052 
2585.000000	94.323362 
2584.000000	94.323895 
2583.000000	94.322437 
2582.000000	94.319682 
2581.000000	94.316519 
2580.000000	94.313626 
2579.000000	94.311754 
2578.000000	94.311837 
2577.000000	94.314253 
2576.000000	94.318192 
2575.000000	94.322211 
2574.000000	94.325569 
2573.000000	94.328538 
2572.000000	94.331332 
2571.000000	94.333464 
2570.000000	94.334464 
2569.000000	94.334793 
2568.000000	94.335490 
2567.000000	94.336995 
2566.000000	94.338854 
2565.000000	94.340579 
2564.000000	94.342269 
2563.000000	94.344103 
2562.000000	94.345658 
2561.000000	94.346214 
2560.000000	94.345513 
2559.000000	94.343916 
2558.000000	94.341931 
2557.000000	94.339927 
2556.000000	94.338340 
2555.000000	94.337661 
2554.000000	94.337932 
2553.000000	94.338548 
2552.000000	94.338954 
2551.000000	94.339429 
2550.000000	94.340714 
2549.000000	94.342815 
2548.000000	94.344616 
2547.000000	94.345094 
2546.000000	94.344696 
2545.000000	94.345019 
2544.000000	94.346916 
2543.000000	94.349266 
2542.000000	94.350068 
2541.000000	94.348675 
2540.000000	94.346554 
2539.000000	94.345728 
2538.000000	94.346600 
2537.000000	94.347771 
2536.000000	94.347734 
2535.000000	94.346252 
2534.000000	94.344061 
2533.000000	94.341851 
2532.000000	94.339912 
2531.000000	94.338527 
2530.000000	94.338090 
2529.000000	94.338682 
2528.000000	94.339833 
2527.000000	94.340896 
2526.000000	94.341509 
2525.000000	94.341697 
2524.000000	94.341790 
2523.000000	94.342305 
2522.000000	94.343579 
2521.000000	94.345295 
2520.000000	94.346535 
2519.000000	94.346552 
2518.000000	94.345400 
2517.000000	94.343751 
2516.000000	94.342170 
2515.000000	94.340726 
2514.000000	94.339306 
2513.000000	94.338074 
2512.000000	94.337394 
2511.000000	94.337323 
2510.000000	94.337378 
2509.000000	94.337013 
2508.000000	94.336315 
2507.000000	94.335907 
2506.000000	94.336047 
2505.000000	94.336104 
2504.000000	94.335294 
2503.000000	94.333729 
2502.000000	94.332353 
2501.000000	94.331824 
2500.000000	94.331869 
2499.000000	94.331849 
2498.000000	94.331568 
2497.000000	94.331239 
2496.000000	94.330904 
2495.000000	94.330320 
2494.000000	94.329378 
2493.000000	94.328316 
2492.000000	94.327462 
2491.000000	94.327004 
2490.000000	94.327025 
2489.000000	94.327456 
2488.000000	94.327964 
2487.000000	94.328138 
2486.000000	94.327880 
2485.000000	94.327460 
2484.000000	94.327139 
2483.000000	94.326849 
2482.000000	94.326371 
2481.000000	94.325750 
2480.000000	94.325317 
2479.000000	94.325282 
2478.000000	94.325492 
2477.000000	94.325639 
2476.000000	94.325591 
2475.000000	94.325414 
2474.000000	94.325171 
2473.000000	94.324869 
2472.000000	94.324596 
2471.000000	94.324615 
2470.000000	94.325191 
2469.000000	94.326308 
2468.000000	94.327501 
2467.000000	94.328109 
2466.000000	94.327788 
2465.000000	94.326783 
2464.000000	94.325782 
2463.000000	94.325298 
2462.000000	94.325253 
2461.000000	94.325206 
2460.000000	94.324856 
2459.000000	94.324292 
2458.000000	94.323751 
2457.000000	94.323313 
2456.000000	94.322957 
2455.000000	94.322801 
2454.000000	94.323059 
2453.000000	94.323710 
2452.000000	94.324339 
2451.000000	94.324443 
2450.000000	94.323936 
2449.000000	94.323313 
2448.000000	94.323297 
2447.000000	94.324243 
2446.000000	94.325881 
2445.000000	94.327508 
2444.000000	94.328588 
2443.000000	94.329079 
2442.000000	94.329179 
2441.000000	94.328943 
2440.000000	94.328346 
2439.000000	94.327623 
2438.000000	94.327188 
2437.000000	94.327109 
2436.000000	94.326988 
2435.000000	94.326541 
2434.000000	94.326106 
2433.000000	94.326275 
2432.000000	94.327157 
2431.000000	94.328294 
2430.000000	94.329183 
2429.000000	94.329618 
2428.000000	94.329500 
2427.000000	94.328717 
2426.000000	94.327448 
2425.000000	94.326353 
2424.000000	94.326113 
2423.000000	94.326679 
2422.000000	94.327129 
2421.000000	94.326458 
2420.000000	94.324494 
2419.000000	94.322210 
2418.000000	94.321214 
2417.000000	94.322564 
2416.000000	94.326007 
2415.000000	94.330150 
2414.000000	94.333283 
2413.000000	94.334470 
2412.000000	94.333909 
2411.000000	94.332760 
2410.000000	94.332483 
2409.000000	94.333778 
2408.000000	94.335910 
2407.000000	94.337431 
2406.000000	94.337796 
2405.000000	94.337848 
2404.000000	94.338452 
2403.000000	94.339206 
2402.000000	94.339157 
2401.000000	94.338457 
2400.000000	94.338315 
2399.000000	94.339273 
2398.000000	94.340363 
2397.000000	94.340286 
2396.000000	94.338759 
2395.000000	94.336404 
2394.000000	94.333934 
2393.000000	94.331798 
2392.000000	94.330345 
2391.000000	94.329769 
2390.000000	94.329814 
2389.000000	94.329912 
2388.000000	94.329649 
2387.000000	94.328827 
2386.000000	94.327330 
2385.000000	94.325419 
2384.000000	94.324041 
2383.000000	94.324322 
2382.000000	94.326616 
2381.000000	94.330204 
2380.000000	94.334168 
2379.000000	94.338210 
2378.000000	94.342349 
2377.000000	94.345935 
2376.000000	94.347614 
2375.000000	94.346621 
2374.000000	94.343918 
2373.000000	94.341745 
2372.000000	94.341478 
2371.000000	94.342358 
2370.000000	94.342710 
2369.000000	94.342015 
2368.000000	94.341158 
2367.000000	94.340978 
2366.000000	94.341534 
2365.000000	94.342729 
2364.000000	94.344626 
2363.000000	94.346804 
2362.000000	94.348225 
2361.000000	94.348175 
2360.000000	94.346394 
2359.000000	94.342819 
2358.000000	94.338708 
2357.000000	94.336589 
2356.000000	94.338342 
2355.000000	94.343033 
2354.000000	94.348849 
2353.000000	94.353405 
2352.000000	94.354136 
2351.000000	94.350492 
2350.000000	94.344581 
2349.000000	94.339641 
2348.000000	94.337306 
2347.000000	94.337506 
2346.000000	94.337904 
2345.000000	94.334567 
2344.000000	94.327619 
2343.000000	94.321309 
2342.000000	94.320085 
2341.000000	94.322996 
2340.000000	94.325924 
2339.000000	94.327132 
2338.000000	94.329208 
2337.000000	94.335176 
2336.000000	94.342119 
2335.000000	94.345396 
2334.000000	94.344275 
2333.000000	94.342966 
2332.000000	94.341425 
2331.000000	94.337487 
2330.000000	94.328478 
2329.000000	94.316633 
2328.000000	94.302144 
2327.000000	94.286862 
2326.000000	94.274009 
2325.000000	94.267810 
2324.000000	94.268809 
2323.000000	94.273622 
2322.000000	94.278740 
2321.000000	94.283162 
2320.000000	94.286561 
2319.000000	94.289360 
2318.000000	94.290764 
2317.000000	94.292026 
2316.000000	94.292998 
2315.000000	94.295207 
2314.000000	94.298282 
2313.000000	94.303023 
2312.000000	94.306987 
2311.000000	94.308440 
2310.000000	94.305197 
2309.000000	94.298394 
2308.000000	94.289708 
2307.000000	94.282337 
2306.000000	94.278125 
2305.000000	94.278526 
2304.000000	94.282769 
2303.000000	94.289665 
2302.000000	94.296592 
2301.000000	94.301926 
2300.000000	94.304435 
2299.000000	94.305216 
2298.000000	94.305322 
2297.000000	94.306437 
2296.000000	94.308603 
2295.000000	94.311366 
2294.000000	94.313350 
2293.000000	94.314177 
2292.000000	94.314240 
2291.000000	94.314454 
2290.000000	94.315191 
2289.000000	94.316164 
2288.000000	94.317030 
2287.000000	94.317611 
2286.000000	94.318031 
2285.000000	94.318390 
2284.000000	94.319061 
2283.000000	94.320311 
2282.000000	94.322192 
2281.000000	94.324420 
2280.000000	94.326753 
2279.000000	94.328838 
2278.000000	94.330173 
2277.000000	94.330571 
2276.000000	94.330612 
2275.000000	94.331298 
2274.000000	94.332787 
2273.000000	94.333959 
2272.000000	94.333483 
2271.000000	94.331313 
2270.000000	94.328839 
2269.000000	94.327684 
2268.000000	94.328292 
2267.000000	94.329891 
2266.000000	94.331298 
2265.000000	94.331895 
2264.000000	94.331855 
2263.000000	94.331715 
2262.000000	94.331912 
2261.000000	94.332543 
2260.000000	94.333449 
2259.000000	94.334379 
2258.000000	94.335189 
2257.000000	94.335899 
2256.000000	94.336577 
2255.000000	94.337203 
2254.000000	94.337695 
2253.000000	94.338059 
2252.000000	94.338399 
2251.000000	94.338779 
2250.000000	94.339142 
2249.000000	94.339439 
2248.000000	94.339724 
2247.000000	94.340064 
2246.000000	94.340450 
2245.000000	94.340841 
2244.000000	94.341234 
2243.000000	94.341628 
2242.000000	94.342003 
2241.000000	94.342364 
2240.000000	94.342703 
2239.000000	94.343018 
2238.000000	94.343318 
2237.000000	94.343615 
2236.000000	94.343918 
2235.000000	94.344227 
2234.000000	94.344537 
2233.000000	94.344846 
2232.000000	94.345152 
2231.000000	94.345458 
2230.000000	94.345768 
2229.000000	94.346082 
2228.000000	94.346399 
2227.000000	94.346717 
2226.000000	94.347040 
2225.000000	94.347372 
2224.000000	94.347714 
2223.000000	94.348066 
2222.000000	94.348422 
2221.000000	94.348761 
2220.000000	94.349062 
2219.000000	94.349348 
2218.000000	94.349654 
2217.000000	94.349986 
2216.000000	94.350314 
2215.000000	94.350609 
2214.000000	94.350878 
2213.000000	94.351166 
2212.000000	94.351510 
2211.000000	94.351891 
2210.000000	94.352232 
2209.000000	94.352503 
2208.000000	94.352846 
2207.000000	94.353486 
2206.000000	94.354426 
2205.000000	94.355236 
2204.000000	94.355341 
2203.000000	94.354512 
2202.000000	94.353101 
2201.000000	94.351842 
2200.000000	94.351342 
2199.000000	94.351812 
2198.000000	94.353034 
2197.000000	94.354458 
2196.000000	94.355449 
2195.000000	94.355697 
2194.000000	94.355448 
2193.000000	94.355340 
2192.000000	94.355900 
2191.000000	94.357139 
2190.000000	94.358544 
2189.000000	94.359576 
2188.000000	94.360258 
2187.000000	94.361214 
2186.000000	94.362960 
2185.000000	94.365170 
2184.000000	94.366815 
2183.000000	94.367084 
2182.000000	94.366015 
2181.000000	94.364354 
2180.000000	94.362950 
2179.000000	94.362226 
2178.000000	94.362034 
2177.000000	94.361875 
2176.000000	94.361450 
2175.000000	94.361031 
2174.000000	94.361072 
2173.000000	94.361493 
2172.000000	94.361714 
2171.000000	94.361539 
2170.000000	94.361621 
2169.000000	94.362744 
2168.000000	94.364819 
2167.000000	94.366835 
2166.000000	94.367769 
2165.000000	94.367375 
2164.000000	94.366172 
2163.000000	94.364903 
2162.000000	94.363927 
2161.000000	94.363062 
2160.000000	94.362100 
2159.000000	94.361351 
2158.000000	94.361417 
2157.000000	94.362314 
2156.000000	94.363129 
2155.000000	94.362861 
2154.000000	94.361432 
2153.000000	94.359667 
2152.000000	94.358399 
2151.000000	94.357751 
2150.000000	94.357412 
2149.000000	94.357223 
2148.000000	94.357257 
2147.000000	94.357462 
2146.000000	94.357531 
2145.000000	94.357219 
2144.000000	94.356695 
2143.000000	94.356411 
2142.000000	94.356561 
2141.000000	94.356826 
2140.000000	94.356727 
2139.000000	94.356181 
2138.000000	94.355591 
2137.000000	94.355424 
2136.000000	94.355764 
2135.000000	94.356352 
2134.000000	94.356902 
2133.000000	94.357279 
2132.000000	94.357462 
2131.000000	94.357451 
2130.000000	94.357267 
2129.000000	94.356990 
2128.000000	94.356741 
2127.000000	94.356603 
2126.000000	94.356553 
2125.000000	94.356498 
2124.000000	94.356375 
2123.000000	94.356217 
2122.000000	94.356086 
2121.000000	94.356013 
2120.000000	94.355990 
2119.000000	94.356000 
2118.000000	94.356026 
2117.000000	94.356054 
2116.000000	94.356076 
2115.000000	94.356093 
2114.000000	94.356114 
2113.000000	94.356148 
2112.000000	94.356197 
2111.000000	94.356253 
2110.000000	94.356303 
2109.000000	94.356338 
2108.000000	94.356363 
2107.000000	94.356391 
2106.000000	94.356438 
2105.000000	94.356509 
2104.000000	94.356596 
2103.000000	94.356675 
2102.000000	94.356715 
2101.000000	94.356710 
2100.000000	94.356714 
2099.000000	94.356798 
2098.000000	94.356957 
2097.000000	94.357077 
2096.000000	94.357082 
2095.000000	94.357069 
2094.000000	94.357203 
2093.000000	94.357467 
2092.000000	94.357598 
2091.000000	94.357363 
2090.000000	94.356796 
2089.000000	94.356156 
2088.000000	94.355727 
2087.000000	94.355765 
2086.000000	94.356427 
2085.000000	94.357535 
2084.000000	94.358557 
2083.000000	94.359135 
2082.000000	94.359501 
2081.000000	94.360107 
2080.000000	94.360970 
2079.000000	94.361699 
2078.000000	94.362063 
2077.000000	94.362109 
2076.000000	94.361794 
2075.000000	94.361038 
2074.000000	94.360198 
2073.000000	94.359884 
2072.000000	94.360091 
2071.000000	94.360040 
2070.000000	94.359167 
2069.000000	94.357909 
2068.000000	94.357177 
2067.000000	94.357330 
2066.000000	94.358120 
2065.000000	94.359321 
2064.000000	94.360919 
2063.000000	94.362681 
2062.000000	94.364014 
2061.000000	94.364373 
2060.000000	94.363622 
2059.000000	94.362038 
2058.000000	94.360045 
2057.000000	94.357925 
2056.000000	94.355805 
2055.000000	94.353958 
2054.000000	94.353054 
2053.000000	94.353696 
2052.000000	94.355558 
2051.000000	94.357431 
2050.000000	94.358394 
2049.000000	94.358686 
2048.000000	94.359080 
2047.000000	94.359642 
2046.000000	94.359509 
2045.000000	94.357856 
2044.000000	94.354726 
2043.000000	94.351052 
2042.000000	94.348132 
2041.000000	94.346843 
2040.000000	94.347026 
2039.000000	94.347672 
2038.000000	94.347984 
2037.000000	94.348139 
2036.000000	94.348750 
2035.000000	94.349882 
2034.000000	94.351094 
2033.000000	94.352270 
2032.000000	94.353737 
2031.000000	94.355349 
2030.000000	94.356053 
2029.000000	94.354902 
2028.000000	94.352117 
2027.000000	94.348915 
2026.000000	94.346389 
2025.000000	94.344812 
2024.000000	94.343885 
2023.000000	94.343223 
2022.000000	94.342597 
2021.000000	94.342020 
2020.000000	94.341636 
2019.000000	94.341400 
2018.000000	94.340923 
2017.000000	94.339862 
2016.000000	94.338512 
2015.000000	94.337743 
2014.000000	94.338201 
2013.000000	94.339684 
2012.000000	94.341218 
2011.000000	94.341812 
2010.000000	94.341185 
2009.000000	94.339804 
2008.000000	94.338323 
2007.000000	94.337006 
2006.000000	94.335738 
2005.000000	94.334510 
2004.000000	94.333648 
2003.000000	94.333496 
2002.000000	94.334009 
2001.000000	94.334731 
2000.000000	94.335133 
1999.000000	94.334901 
1998.000000	94.334037 
1997.000000	94.332878 
1996.000000	94.331968 
1995.000000	94.331617 
1994.000000	94.331550 
1993.000000	94.331192 
1992.000000	94.330467 
1991.000000	94.330021 
1990.000000	94.330374 
1989.000000	94.331268 
1988.000000	94.332078 
1987.000000	94.332577 
1986.000000	94.332957 
1985.000000	94.333298 
1984.000000	94.333419 
1983.000000	94.333284 
1982.000000	94.333195 
1981.000000	94.333358 
1980.000000	94.333525 
1979.000000	94.333367 
1978.000000	94.333033 
1977.000000	94.333036 
1976.000000	94.333604 
1975.000000	94.334377 
1974.000000	94.334781 
1973.000000	94.334597 
1972.000000	94.334079 
1971.000000	94.333697 
1970.000000	94.333731 
1969.000000	94.334034 
1968.000000	94.334143 
1967.000000	94.333743 
1966.000000	94.333096 
1965.000000	94.332863 
1964.000000	94.333430 
1963.000000	94.334579 
1962.000000	94.335761 
1961.000000	94.336667 
1960.000000	94.337360 
1959.000000	94.337873 
1958.000000	94.338009 
1957.000000	94.337705 
1956.000000	94.337277 
1955.000000	94.336977 
1954.000000	94.336567 
1953.000000	94.335717 
1952.000000	94.334599 
1951.000000	94.333808 
1950.000000	94.333668 
1949.000000	94.333927 
1948.000000	94.334106 
1947.000000	94.333999 
1946.000000	94.333727 
1945.000000	94.333440 
1944.000000	94.333157 
1943.000000	94.332857 
1942.000000	94.332581 
1941.000000	94.332411 
1940.000000	94.332434 
1939.000000	94.332740 
1938.000000	94.333291 
1937.000000	94.333744 
1936.000000	94.333587 
1935.000000	94.332599 
1934.000000	94.331141 
1933.000000	94.329961 
1932.000000	94.329456 
1931.000000	94.329310 
1930.000000	94.328869 
1929.000000	94.327949 
1928.000000	94.327087 
1927.000000	94.326887 
1926.000000	94.327330 
1925.000000	94.327802 
1924.000000	94.327891 
1923.000000	94.327836 
1922.000000	94.328060 
1921.000000	94.328414 
1920.000000	94.328234 
1919.000000	94.327034 
1918.000000	94.324905 
1917.000000	94.322465 
1916.000000	94.320473 
1915.000000	94.319428 
1914.000000	94.319417 
1913.000000	94.320017 
1912.000000	94.320553 
1911.000000	94.320683 
1910.000000	94.320507 
1909.000000	94.320089 
1908.000000	94.319225 
1907.000000	94.317896 
1906.000000	94.316584 
1905.000000	94.315706 
1904.000000	94.315148 
1903.000000	94.314504 
1902.000000	94.313639 
1901.000000	94.312681 
1900.000000	94.311717 
1899.000000	94.310861 
1898.000000	94.310430 
1897.000000	94.310528 
1896.000000	94.310756 
1895.000000	94.310754 
1894.000000	94.310830 
1893.000000	94.311469 
1892.000000	94.312448 
1891.000000	94.313070 
1890.000000	94.313119 
1889.000000	94.313076 
1888.000000	94.313302 
1887.000000	94.313621 
1886.000000	94.313902 
1885.000000	94.314464 
1884.000000	94.315694 
1883.000000	94.317470 
1882.000000	94.319096 
1881.000000	94.319808 
1880.000000	94.319434 
1879.000000	94.318672 
1878.000000	94.318574 
1877.000000	94.319539 
1876.000000	94.321105 
1875.000000	94.322710 
1874.000000	94.324235 
1873.000000	94.325535 
1872.000000	94.325948 
1871.000000	94.324950 
1870.000000	94.323328 
1869.000000	94.323001 
1868.000000	94.324785 
1867.000000	94.327419 
1866.000000	94.329407 
1865.000000	94.330738 
1864.000000	94.332174 
1863.000000	94.334059 
1862.000000	94.336216 
1861.000000	94.338394 
1860.000000	94.340392 
1859.000000	94.342081 
1858.000000	94.343669 
1857.000000	94.345542 
1856.000000	94.347521 
1855.000000	94.348828 
1854.000000	94.349126 
1853.000000	94.349156 
1852.000000	94.349891 
1851.000000	94.351269 
1850.000000	94.352612 
1849.000000	94.353752 
1848.000000	94.355120 
1847.000000	94.356687 
1846.000000	94.357676 
1845.000000	94.357747 
1844.000000	94.357948 
1843.000000	94.359434 
1842.000000	94.361568 
1841.000000	94.362830 
1840.000000	94.362772 
1839.000000	94.362289 
1838.000000	94.362534 
1837.000000	94.363740 
1836.000000	94.365378 
1835.000000	94.366972 
1834.000000	94.368499 
1833.000000	94.370142 
1832.000000	94.371907 
1831.000000	94.373287 
1830.000000	94.373381 
1829.000000	94.371691 
1828.000000	94.368835 
1827.000000	94.365901 
1826.000000	94.363727 
1825.000000	94.362916 
1824.000000	94.363774 
1823.000000	94.366011 
1822.000000	94.368690 
1821.000000	94.370834 
1820.000000	94.372010 
1819.000000	94.372444 
1818.000000	94.372638 
1817.000000	94.372872 
1816.000000	94.373093 
1815.000000	94.372901 
1814.000000	94.371833 
1813.000000	94.369941 
1812.000000	94.368053 
1811.000000	94.367392 
1810.000000	94.368614 
1809.000000	94.371487 
1808.000000	94.375216 
1807.000000	94.379136 
1806.000000	94.382988 
1805.000000	94.386040 
1804.000000	94.386591 
1803.000000	94.383534 
1802.000000	94.378618 
1801.000000	94.376125 
1800.000000	94.378186 
1799.000000	94.382326 
1798.000000	94.384906 
1797.000000	94.385118 
1796.000000	94.384061 
1795.000000	94.382362 
1794.000000	94.380357 
1793.000000	94.379789 
1792.000000	94.382406 
1791.000000	94.386620 
1790.000000	94.389224 
1789.000000	94.390021 
1788.000000	94.391404 
1787.000000	94.395135 
1786.000000	94.400753 
1785.000000	94.406915 
1784.000000	94.413379 
1783.000000	94.420475 
1782.000000	94.426994 
1781.000000	94.430309 
1780.000000	94.428574 
1779.000000	94.423737 
1778.000000	94.419444 
1777.000000	94.417518 
1776.000000	94.417574 
1775.000000	94.419109 
1774.000000	94.422904 
1773.000000	94.429425 
1772.000000	94.436824 
1771.000000	94.442163 
1770.000000	94.444849 
1769.000000	94.447775 
1768.000000	94.455273 
1767.000000	94.468737 
1766.000000	94.484565 
1765.000000	94.498127 
1764.000000	94.507972 
1763.000000	94.516199 
1762.000000	94.525552 
1761.000000	94.536726 
1760.000000	94.548424 
1759.000000	94.560229 
1758.000000	94.572760 
1757.000000	94.586228 
1756.000000	94.599479 
1755.000000	94.611285 
1754.000000	94.621166 
1753.000000	94.628782 
1752.000000	94.634452 
1751.000000	94.640976 
1750.000000	94.651788 
1749.000000	94.665386 
1748.000000	94.677012 
1747.000000	94.684142 
1746.000000	94.688591 
1745.000000	94.693566 
1744.000000	94.700019 
1743.000000	94.706280 
1742.000000	94.709676 
1741.000000	94.708971 
1740.000000	94.705328 
1739.000000	94.700852 
1738.000000	94.695536 
1737.000000	94.687669 
1736.000000	94.675578 
1735.000000	94.659020 
1734.000000	94.642081 
1733.000000	94.631447 
1732.000000	94.627738 
1731.000000	94.628565 
1730.000000	94.632350 
1729.000000	94.636164 
1728.000000	94.636167 
1727.000000	94.630459 
1726.000000	94.619948 
1725.000000	94.607135 
1724.000000	94.595122 
1723.000000	94.586510 
1722.000000	94.580619 
1721.000000	94.574012 
1720.000000	94.563310 
1719.000000	94.547049 
1718.000000	94.527275 
1717.000000	94.511371 
1716.000000	94.504885 
1715.000000	94.505321 
1714.000000	94.507589 
1713.000000	94.507175 
1712.000000	94.501255 
1711.000000	94.490282 
1710.000000	94.477271 
1709.000000	94.465462 
1708.000000	94.455877 
1707.000000	94.447073 
1706.000000	94.437796 
1705.000000	94.428457 
1704.000000	94.419639 
1703.000000	94.410481 
1702.000000	94.400348 
1701.000000	94.390098 
1700.000000	94.381624 
1699.000000	94.374455 
1698.000000	94.368042 
1697.000000	94.365715 
1696.000000	94.369346 
1695.000000	94.373569 
1694.000000	94.371836 
1693.000000	94.364854 
1692.000000	94.356873 
1691.000000	94.350744 
1690.000000	94.346253 
1689.000000	94.341533 
1688.000000	94.335992 
1687.000000	94.331085 
1686.000000	94.328904 
1685.000000	94.329221 
1684.000000	94.328508 
1683.000000	94.324164 
1682.000000	94.317644 
1681.000000	94.310795 
1680.000000	94.304956 
1679.000000	94.301673 
1678.000000	94.302234 
1677.000000	94.306027 
1676.000000	94.309793 
1675.000000	94.310195 
1674.000000	94.307627 
1673.000000	94.304636 
1672.000000	94.301934 
1671.000000	94.299221 
1670.000000	94.297389 
1669.000000	94.297771 
1668.000000	94.298729 
1667.000000	94.297287 
1666.000000	94.292882 
1665.000000	94.287434 
1664.000000	94.283376 
1663.000000	94.282008 
1662.000000	94.282784 
1661.000000	94.284203 
1660.000000	94.285112 
1659.000000	94.285351 
1658.000000	94.285171 
1657.000000	94.284642 
1656.000000	94.283458 
1655.000000	94.281303 
1654.000000	94.278115 
1653.000000	94.275112 
1652.000000	94.274019 
1651.000000	94.273830 
1650.000000	94.273577 
1649.000000	94.273680 
1648.000000	94.274046 
1647.000000	94.274252 
1646.000000	94.274977 
1645.000000	94.277131 
1644.000000	94.279945 
1643.000000	94.281622 
1642.000000	94.280907 
1641.000000	94.278222 
1640.000000	94.275180 
1639.000000	94.273265 
1638.000000	94.272844 
1637.000000	94.273185 
1636.000000	94.273237 
1635.000000	94.273019 
1634.000000	94.273049 
1633.000000	94.272629 
1632.000000	94.271178 
1631.000000	94.268870 
1630.000000	94.266891 
1629.000000	94.267125 
1628.000000	94.270235 
1627.000000	94.274057 
1626.000000	94.275219 
1625.000000	94.272661 
1624.000000	94.268994 
1623.000000	94.268548 
1622.000000	94.272273 
1621.000000	94.276578 
1620.000000	94.278439 
1619.000000	94.278401 
1618.000000	94.278841 
1617.000000	94.280813 
1616.000000	94.282698 
1615.000000	94.283432 
1614.000000	94.284515 
1613.000000	94.287741 
1612.000000	94.293648 
1611.000000	94.301305 
1610.000000	94.309111 
1609.000000	94.315745 
1608.000000	94.320732 
1607.000000	94.324381 
1606.000000	94.326822 
1605.000000	94.328057 
1604.000000	94.329004 
1603.000000	94.331674 
1602.000000	94.336653 
1601.000000	94.341594 
1600.000000	94.344064 
1599.000000	94.344676 
1598.000000	94.345969 
1597.000000	94.349399 
1596.000000	94.354697 
1595.000000	94.361084 
1594.000000	94.367596 
1593.000000	94.372915 
1592.000000	94.376394 
1591.000000	94.378926 
1590.000000	94.381727 
1589.000000	94.384600 
1588.000000	94.386602 
1587.000000	94.387955 
1586.000000	94.389769 
1585.000000	94.392232 
1584.000000	94.394583 
1583.000000	94.396638 
1582.000000	94.399279 
1581.000000	94.402947 
1580.000000	94.407176 
1579.000000	94.411540 
1578.000000	94.416003 
1577.000000	94.419978 
1576.000000	94.422450 
1575.000000	94.423625 
1574.000000	94.424486 
1573.000000	94.425269 
1572.000000	94.425864 
1571.000000	94.426618 
1570.000000	94.428338 
1569.000000	94.431230 
1568.000000	94.434505 
1567.000000	94.437599 
1566.000000	94.440571 
1565.000000	94.443365 
1564.000000	94.445739 
1563.000000	94.447696 
1562.000000	94.449508 
1561.000000	94.451052 
1560.000000	94.451703 
1559.000000	94.451858 
1558.000000	94.453544 
1557.000000	94.456122 
1556.000000	94.458083 
1555.000000	94.459413 
1554.000000	94.460814 
1553.000000	94.462630 
1552.000000	94.464397 
1551.000000	94.465617 
1550.000000	94.466398 
1549.000000	94.467127 
1548.000000	94.467850 
1547.000000	94.468308 
1546.000000	94.468606 
1545.000000	94.469355 
1544.000000	94.471055 
1543.000000	94.473481 
1542.000000	94.475834 
1541.000000	94.477229 
1540.000000	94.477211 
1539.000000	94.476493 
1538.000000	94.476321 
1537.000000	94.476848 
1536.000000	94.477569 
1535.000000	94.477957 
1534.000000	94.477976 
1533.000000	94.478337 
1532.000000	94.479376 
1531.000000	94.480489 
1530.000000	94.481200 
1529.000000	94.481635 
1528.000000	94.482199 
1527.000000	94.483245 
1526.000000	94.484915 
1525.000000	94.486919 
1524.000000	94.488341 
1523.000000	94.488211 
1522.000000	94.486650 
1521.000000	94.485605 
1520.000000	94.486606 
1519.000000	94.489005 
1518.000000	94.491756 
1517.000000	94.494342 
1516.000000	94.496271 
1515.000000	94.497302 
1514.000000	94.497998 
1513.000000	94.499450 
1512.000000	94.502142 
1511.000000	94.505307 
1510.000000	94.507797 
1509.000000	94.509491 
1508.000000	94.511157 
1507.000000	94.513098 
1506.000000	94.514755 
1505.000000	94.516132 
1504.000000	94.517694 
1503.000000	94.519863 
1502.000000	94.522735 
1501.000000	94.526051 
1500.000000	94.529726 
1499.000000	94.534112 
1498.000000	94.539523 
1497.000000	94.545598 
1496.000000	94.551012 
1495.000000	94.553877 
1494.000000	94.553361 
1493.000000	94.550674 
1492.000000	94.548517 
1491.000000	94.549807 
1490.000000	94.554986 
1489.000000	94.560847 
1488.000000	94.564134 
1487.000000	94.565382 
1486.000000	94.567708 
1485.000000	94.572544 
1484.000000	94.577618 
1483.000000	94.579282 
1482.000000	94.576242 
1481.000000	94.570866 
1480.000000	94.567209 
1479.000000	94.567230 
1478.000000	94.570110 
1477.000000	94.573332 
1476.000000	94.574377 
1475.000000	94.573070 
1474.000000	94.572814 
1473.000000	94.577997 
1472.000000	94.588577 
1471.000000	94.600236 
1470.000000	94.611055 
1469.000000	94.621870 
1468.000000	94.631941 
1467.000000	94.638601 
1466.000000	94.640933 
1465.000000	94.642390 
1464.000000	94.646152 
1463.000000	94.650654 
1462.000000	94.653445 
1461.000000	94.655132 
1460.000000	94.657796 
1459.000000	94.661509 
1458.000000	94.661572 
1457.000000	94.650953 
1456.000000	94.631674 
1455.000000	94.612751 
1454.000000	94.598569 
1453.000000	94.589378 
1452.000000	94.583736 
1451.000000	94.580630 
1450.000000	94.581376 
1449.000000	94.588723 
1448.000000	94.601941 
1447.000000	94.614399 
1446.000000	94.620290 
1445.000000	94.620829 
1444.000000	94.619388 
1443.000000	94.616920 
1442.000000	94.612487 
1441.000000	94.606537 
1440.000000	94.601442 
1439.000000	94.598676 
1438.000000	94.596633 
1437.000000	94.592147 
1436.000000	94.585885 
1435.000000	94.581427 
1434.000000	94.579519 
1433.000000	94.579073 
1432.000000	94.578898 
1431.000000	94.577281 
1430.000000	94.571561 
1429.000000	94.559868 
1428.000000	94.543955 
1427.000000	94.527902 
1426.000000	94.514234 
1425.000000	94.502523 
1424.000000	94.491027 
1423.000000	94.479247 
1422.000000	94.466374 
1421.000000	94.448887 
1420.000000	94.421567 
1419.000000	94.383854 
1418.000000	94.343995 
1417.000000	94.310598 
1416.000000	94.285095 
1415.000000	94.263113 
1414.000000	94.238306 
1413.000000	94.207172 
1412.000000	94.173033 
1411.000000	94.143563 
1410.000000	94.122779 
1409.000000	94.108430 
1408.000000	94.097627 
1407.000000	94.090761 
1406.000000	94.089882 
1405.000000	94.096521 
1404.000000	94.110850 
1403.000000	94.130537 
1402.000000	94.150828 
1401.000000	94.168150 
1400.000000	94.182285 
1399.000000	94.192872 
1398.000000	94.192804 
1397.000000	94.170275 
1396.000000	94.122890 
1395.000000	94.072209 
1394.000000	94.054408 
1393.000000	94.084208 
1392.000000	94.143348 
1391.000000	94.202187 
1390.000000	94.241872 
1389.000000	94.259981 
1388.000000	94.264188 
1387.000000	94.263541 
1386.000000	94.263028 
1385.000000	94.264169 
1384.000000	94.268123 
1383.000000	94.276498 
1382.000000	94.289988 
1381.000000	94.307265 
1380.000000	94.325495 
1379.000000	94.341968 
1378.000000	94.355926 
1377.000000	94.368831 
1376.000000	94.382670 
1375.000000	94.398153 
1374.000000	94.414443 
1373.000000	94.430133 
1372.000000	94.444279 
1371.000000	94.456850 
1370.000000	94.468924 
1369.000000	94.482144 
1368.000000	94.497063 
1367.000000	94.512225 
1366.000000	94.525481 
1365.000000	94.536223 
1364.000000	94.545871 
1363.000000	94.556472 
1362.000000	94.568828 
1361.000000	94.581750 
1360.000000	94.593407 
1359.000000	94.603139 
1358.000000	94.611820 
1357.000000	94.620538 
1356.000000	94.629224 
1355.000000	94.637178 
1354.000000	94.644869 
1353.000000	94.653931 
1352.000000	94.664265 
1351.000000	94.672403 
1350.000000	94.676066 
1349.000000	94.678224 
1348.000000	94.682698 
1347.000000	94.690281 
1346.000000	94.699481 
1345.000000	94.708312 
1344.000000	94.714089 
1343.000000	94.713607 
1342.000000	94.706018 
1341.000000	94.695414 
1340.000000	94.688658 
1339.000000	94.688959 
1338.000000	94.692632 
1337.000000	94.693781 
1336.000000	94.690404 
1335.000000	94.685085 
1334.000000	94.681978 
1333.000000	94.683768 
1332.000000	94.690060 
1331.000000	94.697450 
1330.000000	94.701599 
1329.000000	94.700301 
1328.000000	94.695049 
1327.000000	94.689787 
1326.000000	94.687773 
1325.000000	94.688912 
1324.000000	94.690033 
1323.000000	94.687937 
1322.000000	94.682407 
1321.000000	94.676420 
1320.000000	94.673331 
1319.000000	94.673903 
1318.000000	94.676169 
1317.000000	94.677844 
1316.000000	94.677909 
1315.000000	94.676016 
1314.000000	94.672234 
1313.000000	94.668222 
1312.000000	94.666906 
1311.000000	94.669161 
1310.000000	94.671735 
1309.000000	94.670471 
1308.000000	94.665379 
1307.000000	94.660797 
1306.000000	94.660141 
1305.000000	94.661912 
1304.000000	94.661893 
1303.000000	94.657816 
1302.000000	94.650829 
1301.000000	94.643507 
1300.000000	94.637537 
1299.000000	94.632720 
1298.000000	94.627339 
1297.000000	94.620121 
1296.000000	94.612348 
1295.000000	94.606994 
1294.000000	94.604924 
1293.000000	94.603180 
1292.000000	94.598188 
1291.000000	94.589570 
1290.000000	94.579537 
1289.000000	94.569713 
1288.000000	94.560118 
1287.000000	94.550288 
1286.000000	94.539804 
1285.000000	94.528497 
1284.000000	94.517733 
1283.000000	94.510488 
1282.000000	94.507596 
1281.000000	94.504783 
1280.000000	94.496247 
1279.000000	94.480923 
1278.000000	94.463039 
1277.000000	94.447096 
1276.000000	94.434391 
1275.000000	94.424093 
1274.000000	94.414858 
1273.000000	94.404510 
1272.000000	94.390205 
1271.000000	94.370339 
1270.000000	94.345687 
1269.000000	94.318600 
1268.000000	94.292166 
1267.000000	94.269545 
1266.000000	94.251614 
1265.000000	94.234840 
1264.000000	94.213732 
1263.000000	94.186408 
1262.000000	94.156549 
1261.000000	94.129479 
1260.000000	94.107860 
1259.000000	94.091344 
1258.000000	94.078311 
1257.000000	94.067052 
1256.000000	94.056471 
1255.000000	94.046114 
1254.000000	94.034681 
1253.000000	94.019341 
1252.000000	93.999072 
1251.000000	93.978843 
1250.000000	93.967358 
1249.000000	93.969222 
1248.000000	93.981038 
1247.000000	93.995037 
1246.000000	94.003688 
1245.000000	94.000543 
1244.000000	93.982199 
1243.000000	93.954642 
1242.000000	93.934545 
1241.000000	93.936777 
1240.000000	93.959693 
1239.000000	93.985618 
1238.000000	93.997451 
1237.000000	93.992001 
1236.000000	93.976385 
1235.000000	93.957835 
1234.000000	93.940382 
1233.000000	93.927085 
1232.000000	93.919160 
1231.000000	93.913182 
1230.000000	93.903930 
1229.000000	93.891108 
1228.000000	93.879834 
1227.000000	93.873303 
1226.000000	93.867793 
1225.000000	93.856786 
1224.000000	93.838220 
1223.000000	93.816362 
1222.000000	93.798170 
1221.000000	93.789040 
1220.000000	93.790205 
1219.000000	93.797516 
1218.000000	93.803018 
1217.000000	93.799763 
1216.000000	93.785661 
1215.000000	93.762811 
1214.000000	93.734616 
1213.000000	93.704555 
1212.000000	93.676145 
1211.000000	93.651246 
1210.000000	93.627927 
1209.000000	93.601983 
1208.000000	93.571453 
1207.000000	93.538719 
1206.000000	93.507838 
1205.000000	93.480384 
1204.000000	93.453892 
1203.000000	93.423607 
1202.000000	93.386243 
1201.000000	93.343547 
1200.000000	93.301906 
1199.000000	93.266652 
1198.000000	93.236667 
1197.000000	93.206357 
1196.000000	93.172662 
1195.000000	93.137661 
1194.000000	93.104258 
1193.000000	93.072394 
1192.000000	93.040857 
1191.000000	93.009999 
1190.000000	92.980704 
1189.000000	92.952848 
1188.000000	92.926669 
1187.000000	92.903381 
1186.000000	92.882035 
1185.000000	92.857838 
1184.000000	92.826833 
1183.000000	92.791564 
1182.000000	92.759241 
1181.000000	92.733945 
1180.000000	92.712318 
1179.000000	92.686676 
1178.000000	92.650673 
1177.000000	92.602469 
1176.000000	92.544881 
1175.000000	92.483515 
1174.000000	92.423392 
1173.000000	92.366423 
1172.000000	92.312417 
1171.000000	92.261696 
1170.000000	92.215276 
1169.000000	92.172809 
1168.000000	92.131895 
1167.000000	92.090017 
1166.000000	92.047299 
1165.000000	92.008182 
1164.000000	91.980555 
1163.000000	91.971458 
1162.000000	91.981822 
1161.000000	92.005268 
1160.000000	92.032281 
1159.000000	92.055003 
1158.000000	92.068310 
1157.000000	92.068393 
1156.000000	92.052461 
1155.000000	92.020764 
1154.000000	91.978687 
1153.000000	91.935475 
1152.000000	91.898551 
1151.000000	91.867532 
1150.000000	91.834989 
1149.000000	91.794847 
1148.000000	91.748925 
1147.000000	91.703117 
1146.000000	91.658694 
1145.000000	91.611554 
1144.000000	91.560186 
1143.000000	91.509485 
1142.000000	91.464328 
1141.000000	91.422611 
1140.000000	91.377463 
1139.000000	91.324269 
1138.000000	91.263637 
1137.000000	91.199605 
1136.000000	91.136949 
1135.000000	91.078575 
1134.000000	91.023403 
1133.000000	90.967553 
1132.000000	90.908308 
1131.000000	90.845408 
1130.000000	90.778409 
1129.000000	90.705743 
1128.000000	90.627637 
1127.000000	90.547542 
1126.000000	90.469599 
1125.000000	90.396674 
1124.000000	90.330646 
1123.000000	90.270857 
1122.000000	90.211953 
1121.000000	90.147917 
1120.000000	90.079559 
1119.000000	90.013432 
1118.000000	89.951701 
1117.000000	89.887950 
1116.000000	89.815427 
1115.000000	89.734881 
1114.000000	89.651809 
1113.000000	89.570822 
1112.000000	89.495688 
1111.000000	89.429567 
1110.000000	89.371085 
1109.000000	89.313962 
1108.000000	89.253907 
1107.000000	89.193027 
1106.000000	89.134954 
1105.000000	89.080162 
1104.000000	89.029591 
1103.000000	88.987907 
1102.000000	88.958137 
1101.000000	88.936484 
1100.000000	88.917107 
1099.000000	88.898601 
1098.000000	88.882071 
1097.000000	88.864977 
1096.000000	88.841503 
1095.000000	88.806569 
1094.000000	88.755014 
1093.000000	88.679494 
1092.000000	88.575819 
1091.000000	88.451417 
1090.000000	88.323573 
1089.000000	88.206173 
1088.000000	88.099968 
1087.000000	87.996603 
1086.000000	87.889853 
1085.000000	87.781918 
1084.000000	87.679707 
1083.000000	87.586267 
1082.000000	87.497282 
1081.000000	87.407173 
1080.000000	87.317044 
1079.000000	87.233788 
1078.000000	87.162764 
1077.000000	87.105528 
1076.000000	87.063614 
1075.000000	87.038920 
1074.000000	87.029735 
1073.000000	87.030207 
1072.000000	87.031827 
1071.000000	87.019631 
1070.000000	86.970833 
1069.000000	86.870601 
1068.000000	86.735377 
1067.000000	86.612750 
1066.000000	86.547460 
1065.000000	86.548471 
1064.000000	86.590384 
1063.000000	86.638210 
1062.000000	86.666388 
1061.000000	86.662597 
1060.000000	86.628705 
1059.000000	86.583243 
1058.000000	86.554206 
1057.000000	86.559805 
1056.000000	86.594540 
1055.000000	86.635117 
1054.000000	86.660046 
1053.000000	86.663408 
1052.000000	86.650668 
1051.000000	86.624622 
1050.000000	86.579933 
1049.000000	86.512386 
1048.000000	86.427851 
1047.000000	86.337144 
1046.000000	86.245173 
1045.000000	86.150948 
1044.000000	86.057015 
1043.000000	85.971861 
1042.000000	85.899895 
1041.000000	85.833599 
1040.000000	85.761449 
1039.000000	85.684514 
1038.000000	85.621872 
1037.000000	85.595810 
1036.000000	85.610715 
1035.000000	85.647878 
1034.000000	85.682797 
1033.000000	85.705279 
1032.000000	85.716749 
1031.000000	85.712557 
1030.000000	85.682463 
1029.000000	85.634643 
1028.000000	85.605007 
1027.000000	85.626996 
1026.000000	85.695965 
1025.000000	85.775068 
1024.000000	85.834525 
1023.000000	85.872816 
1022.000000	85.901411 
1021.000000	85.924854 
1020.000000	85.940606 
1019.000000	85.947691 
1018.000000	85.948950 
1017.000000	85.950150 
1016.000000	85.960391 
1015.000000	85.987838 
1014.000000	86.031369 
1013.000000	86.080392 
1012.000000	86.124831 
1011.000000	86.161506 
1010.000000	86.191472 
1009.000000	86.217969 
1008.000000	86.248196 
1007.000000	86.289882 
1006.000000	86.342321 
1005.000000	86.395563 
1004.000000	86.441946 
1003.000000	86.484847 
1002.000000	86.533111 
1001.000000	86.589893 
1000.000000	86.650017 
999.000000	 86.706567 
998.000000	 86.757893 
997.000000	 86.808459 
996.000000	 86.863427 
995.000000	 86.922615 
994.000000	 86.980666 
993.000000	 87.033495 
992.000000	 87.082711 
991.000000	 87.132679 
990.000000	 87.186058 
989.000000	 87.244336 
988.000000	 87.309489 
987.000000	 87.381984 
986.000000	 87.459793 
985.000000	 87.542060 
984.000000	 87.629985 
983.000000	 87.721937 
982.000000	 87.813720 
981.000000	 87.905811 
980.000000	 88.003923 
979.000000	 88.108649 
978.000000	 88.210853 
977.000000	 88.303651 
976.000000	 88.393307 
975.000000	 88.490680 
974.000000	 88.596540 
973.000000	 88.703161 
972.000000	 88.806595 
971.000000	 88.908744 
970.000000	 89.009766 
969.000000	 89.107317 
968.000000	 89.202537 
967.000000	 89.299134 
966.000000	 89.396891 
965.000000	 89.492925 
964.000000	 89.588643 
963.000000	 89.688040 
962.000000	 89.788656 
961.000000	 89.881667 
960.000000	 89.962907 
959.000000	 90.037911 
958.000000	 90.113850 
957.000000	 90.190845 
956.000000	 90.263896 
955.000000	 90.329848 
954.000000	 90.389314 
953.000000	 90.443505 
952.000000	 90.492029 
951.000000	 90.534600 
950.000000	 90.574236 
949.000000	 90.617076 
948.000000	 90.666816 
947.000000	 90.719599 
946.000000	 90.767341 
945.000000	 90.806269 
944.000000	 90.838655 
943.000000	 90.866255 
942.000000	 90.887867 
941.000000	 90.905613 
940.000000	 90.927059 
939.000000	 90.955923 
938.000000	 90.985535 
937.000000	 91.007680 
936.000000	 91.024120 
935.000000	 91.042974 
934.000000	 91.066546 
933.000000	 91.090102 
932.000000	 91.111453 
931.000000	 91.134271 
930.000000	 91.161260 
929.000000	 91.190086 
928.000000	 91.217451 
927.000000	 91.242471 
926.000000	 91.264999 
925.000000	 91.284732 
924.000000	 91.303003 
923.000000	 91.321948 
922.000000	 91.340949 
921.000000	 91.356907 
920.000000	 91.368892 
919.000000	 91.379931 
918.000000	 91.393372 
917.000000	 91.409213 
916.000000	 91.424463 
915.000000	 91.436288 
914.000000	 91.445353 
913.000000	 91.456897 
912.000000	 91.476713 
911.000000	 91.504729 
910.000000	 91.535024 
909.000000	 91.563749 
908.000000	 91.594151 
907.000000	 91.631987 
906.000000	 91.679490 
905.000000	 91.735886 
904.000000	 91.799563 
903.000000	 91.866657 
902.000000	 91.931951 
901.000000	 91.995099 
900.000000	 92.061689 
899.000000	 92.134526 
898.000000	 92.209083 
897.000000	 92.281466 
896.000000	 92.354775 
895.000000	 92.431581 
894.000000	 92.506063 
893.000000	 92.571493 
892.000000	 92.631545 
891.000000	 92.696537 
890.000000	 92.771388 
889.000000	 92.854090 
888.000000	 92.942080 
887.000000	 93.031417 
886.000000	 93.112933 
885.000000	 93.179329 
884.000000	 93.235260 
883.000000	 93.291360 
882.000000	 93.348174 
881.000000	 93.395202 
880.000000	 93.426258 
879.000000	 93.445750 
878.000000	 93.458474 
877.000000	 93.464118 
876.000000	 93.466001 
875.000000	 93.473569 
874.000000	 93.488415 
873.000000	 93.497377 
872.000000	 93.489487 
871.000000	 93.474247 
870.000000	 93.473740 
869.000000	 93.498919 
868.000000	 93.541674 
867.000000	 93.587951 
866.000000	 93.631588 
865.000000	 93.675532 
864.000000	 93.725349 
863.000000	 93.783089 
862.000000	 93.843678 
861.000000	 93.896235 
860.000000	 93.932166 
859.000000	 93.953727 
858.000000	 93.972662 
857.000000	 93.998691 
856.000000	 94.030922 
855.000000	 94.061860 
854.000000	 94.087659 
853.000000	 94.111430 
852.000000	 94.136750 
851.000000	 94.161763 
850.000000	 94.182781 
849.000000	 94.202227 
848.000000	 94.228284 
847.000000	 94.264470 
846.000000	 94.302553 
845.000000	 94.329274 
844.000000	 94.338651 
843.000000	 94.334773 
842.000000	 94.324405 
841.000000	 94.311506 
840.000000	 94.298471 
839.000000	 94.286416 
838.000000	 94.271572 
837.000000	 94.246962 
836.000000	 94.212485 
835.000000	 94.179876 
834.000000	 94.161936 
833.000000	 94.157823 
832.000000	 94.154252 
831.000000	 94.141412 
830.000000	 94.123687 
829.000000	 94.113772 
828.000000	 94.119554 
827.000000	 94.138165 
826.000000	 94.159477 
825.000000	 94.172444 
824.000000	 94.169790 
823.000000	 94.150744 
822.000000	 94.121152 
821.000000	 94.089347 
820.000000	 94.059768 
819.000000	 94.029623 
818.000000	 93.992249 
817.000000	 93.944885 
816.000000	 93.892495 
815.000000	 93.842210 
814.000000	 93.794436 
813.000000	 93.741674 
812.000000	 93.674704 
811.000000	 93.584996 
810.000000	 93.461500 
809.000000	 93.293616 
808.000000	 93.083336 
807.000000	 92.849628 
806.000000	 92.613495 
805.000000	 92.381468 
804.000000	 92.150546 
803.000000	 91.925123 
802.000000	 91.719220 
801.000000	 91.543840 
800.000000	 91.402942 
799.000000	 91.302981 
798.000000	 91.256294 
797.000000	 91.269564 
796.000000	 91.332364 
795.000000	 91.419449 
794.000000	 91.503998 
793.000000	 91.571137 
792.000000	 91.623104 
791.000000	 91.672127 
790.000000	 91.724420 
789.000000	 91.769135 
788.000000	 91.785367 
787.000000	 91.761138 
786.000000	 91.703086 
785.000000	 91.626848 
784.000000	 91.542561 
783.000000	 91.453278 
782.000000	 91.364111 
781.000000	 91.287499 
780.000000	 91.238614 
779.000000	 91.227201 
778.000000	 91.253546 
777.000000	 91.311190 
776.000000	 91.393100 
775.000000	 91.495023 
774.000000	 91.613247 
773.000000	 91.740578 
772.000000	 91.866061 
771.000000	 91.978876 
770.000000	 92.072307 
769.000000	 92.144988 
768.000000	 92.200643 
767.000000	 92.247321 
766.000000	 92.293992 
765.000000	 92.344877 
764.000000	 92.397441 
763.000000	 92.446849 
762.000000	 92.490681 
761.000000	 92.527973 
760.000000	 92.556870 
759.000000	 92.577600 
758.000000	 92.596631 
757.000000	 92.622801 
756.000000	 92.657779 
755.000000	 92.693115 
754.000000	 92.718762 
753.000000	 92.734258 
752.000000	 92.751812 
751.000000	 92.788583 
750.000000	 92.852711 
749.000000	 92.933642 
748.000000	 93.007943 
747.000000	 93.058905 
746.000000	 93.090257 
745.000000	 93.117678 
744.000000	 93.149329 
743.000000	 93.181441 
742.000000	 93.212042 
741.000000	 93.248974 
740.000000	 93.300054 
739.000000	 93.362009 
738.000000	 93.424330 
737.000000	 93.479759 
736.000000	 93.526581 
735.000000	 93.564428 
734.000000	 93.592692 
733.000000	 93.612298 
732.000000	 93.626377 
731.000000	 93.640566 
730.000000	 93.663274 
729.000000	 93.699125 
728.000000	 93.742007 
727.000000	 93.779218 
726.000000	 93.803079 
725.000000	 93.817568 
724.000000	 93.831063 
723.000000	 93.845418 
722.000000	 93.856714 
721.000000	 93.865143 
720.000000	 93.878280 
719.000000	 93.901673 
718.000000	 93.930680 
717.000000	 93.956380 
716.000000	 93.975228 
715.000000	 93.989009 
714.000000	 93.997517 
713.000000	 93.995512 
712.000000	 93.980463 
711.000000	 93.959723 
710.000000	 93.944618 
709.000000	 93.939576 
708.000000	 93.936464 
707.000000	 93.926140 
706.000000	 93.907598 
705.000000	 93.884554 
704.000000	 93.858240 
703.000000	 93.823244 
702.000000	 93.771932 
701.000000	 93.702063 
700.000000	 93.617350 
699.000000	 93.524144 
698.000000	 93.424576 
697.000000	 93.318433 
696.000000	 93.218237 
695.000000	 93.154276 
694.000000	 93.158412 
693.000000	 93.235479 
692.000000	 93.351735 
691.000000	 93.463058 
690.000000	 93.550254 
689.000000	 93.621930 
688.000000	 93.689476 
687.000000	 93.751048 
686.000000	 93.803875 
685.000000	 93.853376 
684.000000	 93.902374 
683.000000	 93.947411 
682.000000	 93.989604 
681.000000	 94.037015 
680.000000	 94.089788 
679.000000	 94.134503 
678.000000	 94.159711 
677.000000	 94.165475 
676.000000	 94.167416 
675.000000	 94.183638 
674.000000	 94.220891 
673.000000	 94.271444 
672.000000	 94.325918 
671.000000	 94.390248 
670.000000	 94.489501 
669.000000	 94.638569 
668.000000	 94.753521 
667.000000	 94.720434 
666.000000	 94.617151 
665.000000	 94.546048 
664.000000	 94.519956 
663.000000	 94.527413 
662.000000	 94.552337 
661.000000	 94.578462 
660.000000	 94.600794 
659.000000	 94.625491 
658.000000	 94.658162 
657.000000	 94.691473 
656.000000	 94.715772 
655.000000	 94.726819 
654.000000	 94.724257 
653.000000	 94.712291 
652.000000	 94.700603 
651.000000	 94.694770 
650.000000	 94.690043 

