PE IR                   SPECTRUM    ASCII       PEDS        1.60        
  -1
~SP.SP
22/12/06
16:25:35.00
23/01/09
15:00:38.00
Administrator

650.000000
4









FRONTIER FT-IR,CPU32 MAIN 00.09.9951 07-SEPTEMBER-2011 11:49:41
MIR TGS
MIR
OPTKBR
90694
0.200000

4.000000
STRONG
RATIO
SPECTRUM
MAGNITUDE
MIRACLE ATR
DOUBLE

COMBINED


0


#HDR
-1
-1
#GR
CM-1
%T
0.00002384185791015625
0.0
4000.000000
-1.000000
3351
8
85.085494
76.748539
#DATA
4000.000000	85.081034 
3999.000000	85.077786 
3998.000000	85.069843 
3997.000000	85.060772 
3996.000000	85.054531 
3995.000000	85.052326 
3994.000000	85.052696 
3993.000000	85.053155 
3992.000000	85.052677 
3991.000000	85.051955 
3990.000000	85.051696 
3989.000000	85.051592 
3988.000000	85.050974 
3987.000000	85.050064 
3986.000000	85.050056 
3985.000000	85.051910 
3984.000000	85.055226 
3983.000000	85.058253 
3982.000000	85.059433 
3981.000000	85.058618 
3980.000000	85.056679 
3979.000000	85.054399 
3978.000000	85.052011 
3977.000000	85.049633 
3976.000000	85.047693 
3975.000000	85.046671 
3974.000000	85.046501 
3973.000000	85.046344 
3972.000000	85.045132 
3971.000000	85.042488 
3970.000000	85.039149 
3969.000000	85.036294 
3968.000000	85.034411 
3967.000000	85.033053 
3966.000000	85.031497 
3965.000000	85.029558 
3964.000000	85.027646 
3963.000000	85.026182 
3962.000000	85.025116 
3961.000000	85.023988 
3960.000000	85.022453 
3959.000000	85.020740 
3958.000000	85.019427 
3957.000000	85.018791 
3956.000000	85.018506 
3955.000000	85.017972 
3954.000000	85.016814 
3953.000000	85.015014 
3952.000000	85.012757 
3951.000000	85.010306 
3950.000000	85.007982 
3949.000000	85.006057 
3948.000000	85.004586 
3947.000000	85.003437 
3946.000000	85.002467 
3945.000000	85.001646 
3944.000000	85.001012 
3943.000000	85.000480 
3942.000000	84.999744 
3941.000000	84.998537 
3940.000000	84.996860 
3939.000000	84.994926 
3938.000000	84.992965 
3937.000000	84.991057 
3936.000000	84.989213 
3935.000000	84.987600 
3934.000000	84.986487 
3933.000000	84.985837 
3932.000000	84.985055 
3931.000000	84.983485 
3930.000000	84.981144 
3929.000000	84.978808 
3928.000000	84.977198 
3927.000000	84.976276 
3926.000000	84.975491 
3925.000000	84.974440 
3924.000000	84.972991 
3923.000000	84.971041 
3922.000000	84.968710 
3921.000000	84.966486 
3920.000000	84.964755 
3919.000000	84.963339 
3918.000000	84.961888 
3917.000000	84.960477 
3916.000000	84.959334 
3915.000000	84.958300 
3914.000000	84.957123 
3913.000000	84.955937 
3912.000000	84.954795 
3911.000000	84.953290 
3910.000000	84.950967 
3909.000000	84.948290 
3908.000000	84.946320 
3907.000000	84.945732 
3906.000000	84.946096 
3905.000000	84.946174 
3904.000000	84.944808 
3903.000000	84.941610 
3902.000000	84.937045 
3901.000000	84.932123 
3900.000000	84.927808 
3899.000000	84.924461 
3898.000000	84.921947 
3897.000000	84.920129 
3896.000000	84.919111 
3895.000000	84.918923 
3894.000000	84.919080 
3893.000000	84.918880 
3892.000000	84.917917 
3891.000000	84.916307 
3890.000000	84.914159 
3889.000000	84.911509 
3888.000000	84.908699 
3887.000000	84.906397 
3886.000000	84.904983 
3885.000000	84.904061 
3884.000000	84.902806 
3883.000000	84.901019 
3882.000000	84.899238 
3881.000000	84.897933 
3880.000000	84.896998 
3879.000000	84.896010 
3878.000000	84.894733 
3877.000000	84.893263 
3876.000000	84.891750 
3875.000000	84.890256 
3874.000000	84.888747 
3873.000000	84.887093 
3872.000000	84.885273 
3871.000000	84.883605 
3870.000000	84.882473 
3869.000000	84.881744 
3868.000000	84.880734 
3867.000000	84.879108 
3866.000000	84.877325 
3865.000000	84.876104 
3864.000000	84.875508 
3863.000000	84.874930 
3862.000000	84.874004 
3861.000000	84.873006 
3860.000000	84.872304 
3859.000000	84.871988 
3858.000000	84.871838 
3857.000000	84.871497 
3856.000000	84.870466 
3855.000000	84.868412 
3854.000000	84.865629 
3853.000000	84.863079 
3852.000000	84.861181 
3851.000000	84.859697 
3850.000000	84.858626 
3849.000000	84.858030 
3848.000000	84.857645 
3847.000000	84.857040 
3846.000000	84.856049 
3845.000000	84.854819 
3844.000000	84.853588 
3843.000000	84.852489 
3842.000000	84.851462 
3841.000000	84.850401 
3840.000000	84.849295 
3839.000000	84.848218 
3838.000000	84.847217 
3837.000000	84.846372 
3836.000000	84.845755 
3835.000000	84.845330 
3834.000000	84.844963 
3833.000000	84.844552 
3832.000000	84.844084 
3831.000000	84.843590 
3830.000000	84.843093 
3829.000000	84.842582 
3828.000000	84.842043 
3827.000000	84.841477 
3826.000000	84.840894 
3825.000000	84.840297 
3824.000000	84.839681 
3823.000000	84.839040 
3822.000000	84.838379 
3821.000000	84.837713 
3820.000000	84.837042 
3819.000000	84.836348 
3818.000000	84.835631 
3817.000000	84.834927 
3816.000000	84.834276 
3815.000000	84.833696 
3814.000000	84.833174 
3813.000000	84.832699 
3812.000000	84.832272 
3811.000000	84.831883 
3810.000000	84.831500 
3809.000000	84.831092 
3808.000000	84.830652 
3807.000000	84.830197 
3806.000000	84.829749 
3805.000000	84.829316 
3804.000000	84.828903 
3803.000000	84.828519 
3802.000000	84.828176 
3801.000000	84.827869 
3800.000000	84.827572 
3799.000000	84.827268 
3798.000000	84.826957 
3797.000000	84.826647 
3796.000000	84.826324 
3795.000000	84.825963 
3794.000000	84.825567 
3793.000000	84.825104 
3792.000000	84.824600 
3791.000000	84.824133 
3790.000000	84.823615 
3789.000000	84.822777 
3788.000000	84.821392 
3787.000000	84.819469 
3786.000000	84.817386 
3785.000000	84.815882 
3784.000000	84.815441 
3783.000000	84.815540 
3782.000000	84.815009 
3781.000000	84.813409 
3780.000000	84.811663 
3779.000000	84.811066 
3778.000000	84.811642 
3777.000000	84.812369 
3776.000000	84.812844 
3775.000000	84.813687 
3774.000000	84.815063 
3773.000000	84.815818 
3772.000000	84.814922 
3771.000000	84.813039 
3770.000000	84.811454 
3769.000000	84.809953 
3768.000000	84.807153 
3767.000000	84.803030 
3766.000000	84.799419 
3765.000000	84.797986 
3764.000000	84.798211 
3763.000000	84.798103 
3762.000000	84.796869 
3761.000000	84.795484 
3760.000000	84.794187 
3759.000000	84.791651 
3758.000000	84.787641 
3757.000000	84.784529 
3756.000000	84.783784 
3755.000000	84.783777 
3754.000000	84.782372 
3753.000000	84.779675 
3752.000000	84.776075 
3751.000000	84.769915 
3750.000000	84.761638 
3749.000000	84.755726 
3748.000000	84.753220 
3747.000000	84.749525 
3746.000000	84.742783 
3745.000000	84.739808 
3744.000000	84.746164 
3743.000000	84.751294 
3742.000000	84.743394 
3741.000000	84.728897 
3740.000000	84.720506 
3739.000000	84.720150 
3738.000000	84.718788 
3737.000000	84.711637 
3736.000000	84.704457 
3735.000000	84.701429 
3734.000000	84.698306 
3733.000000	84.693729 
3732.000000	84.694383 
3731.000000	84.702102 
3730.000000	84.708471 
3729.000000	84.705652 
3728.000000	84.695660 
3727.000000	84.686653 
3726.000000	84.682061 
3725.000000	84.677296 
3724.000000	84.669282 
3723.000000	84.660332 
3722.000000	84.652448 
3721.000000	84.645032 
3720.000000	84.637732 
3719.000000	84.631760 
3718.000000	84.627728 
3717.000000	84.624274 
3716.000000	84.617007 
3715.000000	84.603760 
3714.000000	84.589168 
3713.000000	84.579704 
3712.000000	84.574828 
3711.000000	84.567002 
3710.000000	84.551124 
3709.000000	84.529350 
3708.000000	84.506624 
3707.000000	84.485765 
3706.000000	84.465449 
3705.000000	84.443076 
3704.000000	84.418736 
3703.000000	84.395737 
3702.000000	84.376952 
3701.000000	84.361096 
3700.000000	84.343400 
3699.000000	84.321005 
3698.000000	84.297118 
3697.000000	84.277973 
3696.000000	84.264805 
3695.000000	84.252027 
3694.000000	84.235066 
3693.000000	84.214521 
3692.000000	84.191024 
3691.000000	84.161801 
3690.000000	84.127141 
3689.000000	84.096807 
3688.000000	84.080995 
3687.000000	84.077836 
3686.000000	84.077962 
3685.000000	84.077863 
3684.000000	84.081166 
3683.000000	84.089605 
3682.000000	84.097414 
3681.000000	84.097195 
3680.000000	84.086954 
3679.000000	84.066450 
3678.000000	84.035090 
3677.000000	83.999864 
3676.000000	83.980038 
3675.000000	83.985593 
3674.000000	83.998210 
3673.000000	83.995006 
3672.000000	83.976739 
3671.000000	83.959823 
3670.000000	83.955254 
3669.000000	83.957340 
3668.000000	83.954899 
3667.000000	83.947406 
3666.000000	83.940924 
3665.000000	83.938206 
3664.000000	83.937384 
3663.000000	83.936361 
3662.000000	83.935299 
3661.000000	83.935049 
3660.000000	83.934942 
3659.000000	83.933590 
3658.000000	83.932458 
3657.000000	83.935875 
3656.000000	83.946021 
3655.000000	83.957217 
3654.000000	83.962167 
3653.000000	83.961431 
3652.000000	83.963058 
3651.000000	83.973183 
3650.000000	83.989856 
3649.000000	84.007153 
3648.000000	84.022403 
3647.000000	84.034567 
3646.000000	84.040911 
3645.000000	84.041723 
3644.000000	84.043076 
3643.000000	84.051831 
3642.000000	84.067534 
3641.000000	84.081835 
3640.000000	84.087071 
3639.000000	84.085186 
3638.000000	84.085077 
3637.000000	84.092355 
3636.000000	84.105485 
3635.000000	84.120494 
3634.000000	84.135289 
3633.000000	84.147683 
3632.000000	84.155322 
3631.000000	84.159206 
3630.000000	84.163558 
3629.000000	84.170645 
3628.000000	84.175075 
3627.000000	84.170607 
3626.000000	84.160844 
3625.000000	84.153856 
3624.000000	84.152082 
3623.000000	84.152115 
3622.000000	84.151321 
3621.000000	84.152550 
3620.000000	84.160390 
3619.000000	84.174229 
3618.000000	84.188173 
3617.000000	84.197727 
3616.000000	84.203796 
3615.000000	84.210636 
3614.000000	84.221503 
3613.000000	84.235132 
3612.000000	84.246666 
3611.000000	84.253133 
3610.000000	84.257223 
3609.000000	84.263934 
3608.000000	84.274141 
3607.000000	84.283478 
3606.000000	84.288042 
3605.000000	84.289048 
3604.000000	84.290797 
3603.000000	84.295941 
3602.000000	84.303526 
3601.000000	84.310801 
3600.000000	84.315811 
3599.000000	84.318470 
3598.000000	84.321083 
3597.000000	84.326265 
3596.000000	84.334468 
3595.000000	84.343634 
3594.000000	84.351186 
3593.000000	84.355746 
3592.000000	84.358398 
3591.000000	84.361678 
3590.000000	84.367799 
3589.000000	84.376832 
3588.000000	84.386264 
3587.000000	84.392629 
3586.000000	84.394261 
3585.000000	84.392488 
3584.000000	84.390022 
3583.000000	84.388537 
3582.000000	84.388307 
3581.000000	84.389473 
3580.000000	84.392507 
3579.000000	84.397364 
3578.000000	84.403427 
3577.000000	84.410245 
3576.000000	84.417881 
3575.000000	84.425992 
3574.000000	84.432995 
3573.000000	84.436717 
3572.000000	84.436290 
3571.000000	84.433101 
3570.000000	84.429560 
3569.000000	84.427267 
3568.000000	84.426204 
3567.000000	84.425401 
3566.000000	84.424468 
3565.000000	84.424616 
3564.000000	84.427853 
3563.000000	84.434880 
3562.000000	84.444036 
3561.000000	84.452334 
3560.000000	84.457588 
3559.000000	84.459540 
3558.000000	84.459467 
3557.000000	84.459285 
3556.000000	84.460595 
3555.000000	84.464024 
3554.000000	84.469046 
3553.000000	84.474108 
3552.000000	84.477007 
3551.000000	84.476195 
3550.000000	84.471983 
3549.000000	84.466533 
3548.000000	84.462226 
3547.000000	84.460158 
3546.000000	84.460565 
3545.000000	84.463780 
3544.000000	84.469864 
3543.000000	84.477694 
3542.000000	84.485384 
3541.000000	84.491622 
3540.000000	84.496115 
3539.000000	84.499137 
3538.000000	84.501255 
3537.000000	84.503431 
3536.000000	84.506666 
3535.000000	84.511251 
3534.000000	84.516584 
3533.000000	84.521668 
3532.000000	84.525623 
3531.000000	84.527888 
3530.000000	84.528632 
3529.000000	84.528929 
3528.000000	84.529997 
3527.000000	84.531953 
3526.000000	84.533858 
3525.000000	84.535065 
3524.000000	84.536045 
3523.000000	84.537706 
3522.000000	84.540440 
3521.000000	84.544099 
3520.000000	84.548527 
3519.000000	84.553566 
3518.000000	84.558750 
3517.000000	84.563347 
3516.000000	84.566893 
3515.000000	84.569514 
3514.000000	84.571663 
3513.000000	84.573797 
3512.000000	84.576387 
3511.000000	84.579823 
3510.000000	84.584081 
3509.000000	84.588589 
3508.000000	84.592570 
3507.000000	84.595700 
3506.000000	84.598270 
3505.000000	84.600813 
3504.000000	84.603680 
3503.000000	84.606858 
3502.000000	84.610187 
3501.000000	84.613554 
3500.000000	84.616893 
3499.000000	84.620126 
3498.000000	84.623166 
3497.000000	84.625997 
3496.000000	84.628733 
3495.000000	84.631555 
3494.000000	84.634566 
3493.000000	84.637728 
3492.000000	84.640932 
3491.000000	84.644110 
3490.000000	84.647279 
3489.000000	84.650474 
3488.000000	84.653700 
3487.000000	84.656929 
3486.000000	84.660145 
3485.000000	84.663340 
3484.000000	84.666482 
3483.000000	84.669505 
3482.000000	84.672394 
3481.000000	84.675300 
3480.000000	84.678474 
3479.000000	84.681997 
3478.000000	84.685513 
3477.000000	84.688469 
3476.000000	84.690681 
3475.000000	84.692625 
3474.000000	84.695034 
3473.000000	84.698097 
3472.000000	84.701284 
3471.000000	84.703947 
3470.000000	84.705962 
3469.000000	84.707667 
3468.000000	84.709424 
3467.000000	84.711489 
3466.000000	84.714202 
3465.000000	84.717896 
3464.000000	84.722418 
3463.000000	84.726896 
3462.000000	84.730374 
3461.000000	84.732594 
3460.000000	84.734145 
3459.000000	84.735956 
3458.000000	84.738528 
3457.000000	84.741711 
3456.000000	84.745063 
3455.000000	84.748259 
3454.000000	84.751195 
3453.000000	84.753952 
3452.000000	84.756780 
3451.000000	84.759930 
3450.000000	84.763388 
3449.000000	84.766927 
3448.000000	84.770556 
3447.000000	84.774617 
3446.000000	84.779154 
3445.000000	84.783433 
3444.000000	84.786631 
3443.000000	84.788904 
3442.000000	84.791349 
3441.000000	84.794649 
3440.000000	84.798037 
3439.000000	84.800041 
3438.000000	84.800115 
3437.000000	84.799345 
3436.000000	84.799573 
3435.000000	84.801716 
3434.000000	84.805152 
3433.000000	84.808411 
3432.000000	84.810619 
3431.000000	84.812141 
3430.000000	84.813898 
3429.000000	84.816264 
3428.000000	84.818861 
3427.000000	84.821247 
3426.000000	84.823404 
3425.000000	84.825464 
3424.000000	84.827327 
3423.000000	84.828831 
3422.000000	84.830116 
3421.000000	84.831605 
3420.000000	84.833682 
3419.000000	84.836460 
3418.000000	84.839631 
3417.000000	84.842358 
3416.000000	84.843709 
3415.000000	84.843593 
3414.000000	84.843148 
3413.000000	84.843716 
3412.000000	84.845330 
3411.000000	84.846745 
3410.000000	84.846999 
3409.000000	84.846488 
3408.000000	84.846349 
3407.000000	84.847138 
3406.000000	84.848510 
3405.000000	84.849853 
3404.000000	84.850773 
3403.000000	84.851053 
3402.000000	84.850644 
3401.000000	84.849932 
3400.000000	84.849790 
3399.000000	84.850973 
3398.000000	84.853415 
3397.000000	84.856113 
3396.000000	84.857790 
3395.000000	84.857840 
3394.000000	84.856633 
3393.000000	84.855216 
3392.000000	84.854621 
3391.000000	84.855197 
3390.000000	84.856571 
3389.000000	84.858036 
3388.000000	84.859205 
3387.000000	84.860431 
3386.000000	84.862407 
3385.000000	84.865258 
3384.000000	84.868091 
3383.000000	84.869684 
3382.000000	84.869625 
3381.000000	84.868543 
3380.000000	84.867395 
3379.000000	84.866688 
3378.000000	84.866481 
3377.000000	84.866781 
3376.000000	84.867613 
3375.000000	84.868796 
3374.000000	84.869893 
3373.000000	84.870438 
3372.000000	84.870169 
3371.000000	84.869084 
3370.000000	84.867448 
3369.000000	84.865772 
3368.000000	84.864593 
3367.000000	84.864157 
3366.000000	84.864263 
3365.000000	84.864527 
3364.000000	84.864783 
3363.000000	84.865119 
3362.000000	84.865453 
3361.000000	84.865276 
3360.000000	84.864063 
3359.000000	84.861984 
3358.000000	84.859992 
3357.000000	84.858970 
3356.000000	84.858839 
3355.000000	84.858576 
3354.000000	84.857148 
3353.000000	84.854413 
3352.000000	84.851273 
3351.000000	84.849013 
3350.000000	84.848291 
3349.000000	84.848812 
3348.000000	84.849564 
3347.000000	84.849560 
3346.000000	84.848528 
3345.000000	84.846919 
3344.000000	84.845367 
3343.000000	84.844002 
3342.000000	84.842393 
3341.000000	84.840164 
3340.000000	84.837493 
3339.000000	84.834895 
3338.000000	84.832591 
3337.000000	84.830374 
3336.000000	84.828145 
3335.000000	84.826260 
3334.000000	84.825059 
3333.000000	84.824206 
3332.000000	84.822887 
3331.000000	84.820719 
3330.000000	84.818081 
3329.000000	84.815447 
3328.000000	84.812689 
3327.000000	84.809414 
3326.000000	84.805769 
3325.000000	84.802492 
3324.000000	84.800117 
3323.000000	84.798360 
3322.000000	84.796332 
3321.000000	84.793273 
3320.000000	84.789055 
3319.000000	84.784151 
3318.000000	84.779314 
3317.000000	84.775223 
3316.000000	84.772186 
3315.000000	84.769967 
3314.000000	84.767777 
3313.000000	84.764718 
3312.000000	84.760476 
3311.000000	84.755533 
3310.000000	84.750719 
3309.000000	84.746410 
3308.000000	84.742339 
3307.000000	84.738076 
3306.000000	84.733524 
3305.000000	84.728954 
3304.000000	84.724782 
3303.000000	84.721357 
3302.000000	84.718783 
3301.000000	84.716715 
3300.000000	84.714340 
3299.000000	84.710850 
3298.000000	84.706005 
3297.000000	84.700226 
3296.000000	84.694269 
3295.000000	84.688748 
3294.000000	84.683869 
3293.000000	84.679468 
3292.000000	84.675244 
3291.000000	84.671015 
3290.000000	84.666735 
3289.000000	84.662294 
3288.000000	84.657490 
3287.000000	84.652341 
3286.000000	84.647284 
3285.000000	84.642844 
3284.000000	84.639114 
3283.000000	84.635683 
3282.000000	84.632058 
3281.000000	84.628036 
3280.000000	84.623596 
3279.000000	84.618646 
3278.000000	84.613097 
3277.000000	84.607159 
3276.000000	84.601378 
3275.000000	84.596247 
3274.000000	84.591863 
3273.000000	84.587911 
3272.000000	84.583930 
3271.000000	84.579653 
3270.000000	84.575095 
3269.000000	84.570481 
3268.000000	84.566095 
3267.000000	84.562049 
3266.000000	84.558129 
3265.000000	84.553926 
3264.000000	84.549241 
3263.000000	84.544372 
3262.000000	84.539863 
3261.000000	84.535861 
3260.000000	84.531858 
3259.000000	84.527231 
3258.000000	84.521982 
3257.000000	84.516723 
3256.000000	84.511977 
3255.000000	84.507637 
3254.000000	84.503269 
3253.000000	84.498740 
3252.000000	84.494307 
3251.000000	84.490083 
3250.000000	84.485756 
3249.000000	84.481021 
3248.000000	84.476035 
3247.000000	84.471224 
3246.000000	84.466765 
3245.000000	84.462515 
3244.000000	84.458332 
3243.000000	84.454124 
3242.000000	84.449549 
3241.000000	84.444101 
3240.000000	84.437759 
3239.000000	84.431354 
3238.000000	84.425912 
3237.000000	84.421651 
3236.000000	84.417839 
3235.000000	84.413571 
3234.000000	84.408579 
3233.000000	84.403246 
3232.000000	84.398138 
3231.000000	84.393661 
3230.000000	84.390003 
3229.000000	84.387095 
3228.000000	84.384557 
3227.000000	84.381825 
3226.000000	84.378362 
3225.000000	84.373903 
3224.000000	84.368708 
3223.000000	84.363529 
3222.000000	84.359193 
3221.000000	84.356053 
3220.000000	84.353754 
3219.000000	84.351384 
3218.000000	84.348012 
3217.000000	84.343309 
3216.000000	84.337740 
3215.000000	84.332186 
3214.000000	84.327155 
3213.000000	84.322552 
3212.000000	84.318164 
3211.000000	84.313965 
3210.000000	84.309818 
3209.000000	84.305288 
3208.000000	84.300201 
3207.000000	84.295146 
3206.000000	84.290935 
3205.000000	84.287597 
3204.000000	84.284350 
3203.000000	84.280568 
3202.000000	84.276345 
3201.000000	84.272131 
3200.000000	84.268236 
3199.000000	84.264802 
3198.000000	84.261826 
3197.000000	84.259065 
3196.000000	84.256161 
3195.000000	84.253031 
3194.000000	84.249959 
3193.000000	84.247132 
3192.000000	84.244198 
3191.000000	84.240517 
3190.000000	84.235804 
3189.000000	84.230376 
3188.000000	84.224987 
3187.000000	84.220370 
3186.000000	84.216807 
3185.000000	84.213997 
3184.000000	84.211203 
3183.000000	84.207793 
3182.000000	84.203722 
3181.000000	84.199487 
3180.000000	84.195665 
3179.000000	84.192414 
3178.000000	84.189451 
3177.000000	84.186480 
3176.000000	84.183553 
3175.000000	84.180852 
3174.000000	84.178233 
3173.000000	84.175246 
3172.000000	84.171647 
3171.000000	84.167651 
3170.000000	84.163551 
3169.000000	84.159364 
3168.000000	84.155143 
3167.000000	84.151358 
3166.000000	84.148483 
3165.000000	84.146216 
3164.000000	84.143504 
3163.000000	84.139598 
3162.000000	84.134753 
3161.000000	84.129921 
3160.000000	84.125834 
3159.000000	84.122485 
3158.000000	84.119294 
3157.000000	84.115559 
3156.000000	84.110975 
3155.000000	84.106024 
3154.000000	84.101780 
3153.000000	84.099000 
3152.000000	84.097477 
3151.000000	84.096264 
3150.000000	84.094601 
3149.000000	84.092428 
3148.000000	84.089991 
3147.000000	84.087307 
3146.000000	84.084151 
3145.000000	84.080444 
3144.000000	84.076476 
3143.000000	84.072628 
3142.000000	84.068898 
3141.000000	84.064987 
3140.000000	84.060978 
3139.000000	84.057668 
3138.000000	84.055829 
3137.000000	84.055228 
3136.000000	84.054642 
3135.000000	84.053001 
3134.000000	84.050231 
3133.000000	84.046928 
3132.000000	84.043612 
3131.000000	84.040464 
3130.000000	84.037557 
3129.000000	84.035094 
3128.000000	84.033408 
3127.000000	84.032727 
3126.000000	84.032774 
3125.000000	84.032624 
3124.000000	84.031282 
3123.000000	84.028521 
3122.000000	84.025013 
3121.000000	84.021558 
3120.000000	84.018416 
3119.000000	84.015489 
3118.000000	84.012928 
3117.000000	84.011213 
3116.000000	84.010669 
3115.000000	84.011087 
3114.000000	84.011664 
3113.000000	84.011346 
3112.000000	84.009529 
3111.000000	84.006591 
3110.000000	84.003811 
3109.000000	84.002541 
3108.000000	84.003263 
3107.000000	84.005180 
3106.000000	84.006640 
3105.000000	84.006341 
3104.000000	84.004086 
3103.000000	84.000602 
3102.000000	83.996816 
3101.000000	83.993301 
3100.000000	83.990442 
3099.000000	83.988604 
3098.000000	83.987706 
3097.000000	83.986942 
3096.000000	83.985413 
3095.000000	83.982874 
3094.000000	83.979360 
3093.000000	83.974439 
3092.000000	83.967916 
3091.000000	83.961356 
3090.000000	83.957636 
3089.000000	83.958230 
3088.000000	83.961428 
3087.000000	83.963784 
3086.000000	83.963233 
3085.000000	83.960335 
3084.000000	83.956989 
3083.000000	83.954577 
3082.000000	83.953085 
3081.000000	83.951585 
3080.000000	83.949666 
3079.000000	83.948396 
3078.000000	83.949307 
3077.000000	83.952260 
3076.000000	83.954937 
3075.000000	83.954715 
3074.000000	83.950846 
3073.000000	83.945232 
3072.000000	83.941554 
3071.000000	83.942788 
3070.000000	83.948199 
3069.000000	83.952907 
3068.000000	83.951951 
3067.000000	83.945264 
3066.000000	83.937949 
3065.000000	83.935820 
3064.000000	83.941198 
3063.000000	83.951776 
3062.000000	83.961371 
3061.000000	83.962661 
3060.000000	83.952657 
3059.000000	83.936611 
3058.000000	83.923947 
3057.000000	83.918704 
3056.000000	83.916180 
3055.000000	83.910422 
3054.000000	83.902090 
3053.000000	83.896391 
3052.000000	83.895415 
3051.000000	83.895748 
3050.000000	83.893063 
3049.000000	83.886126 
3048.000000	83.876194 
3047.000000	83.864830 
3046.000000	83.853034 
3045.000000	83.841045 
3044.000000	83.828375 
3043.000000	83.815008 
3042.000000	83.802641 
3041.000000	83.793501 
3040.000000	83.787308 
3039.000000	83.780209 
3038.000000	83.767695 
3037.000000	83.748795 
3036.000000	83.727182 
3035.000000	83.707833 
3034.000000	83.692368 
3033.000000	83.677774 
3032.000000	83.660060 
3031.000000	83.638503 
3030.000000	83.614877 
3029.000000	83.589413 
3028.000000	83.560468 
3027.000000	83.528196 
3026.000000	83.495834 
3025.000000	83.465910 
3024.000000	83.436644 
3023.000000	83.403621 
3022.000000	83.364375 
3021.000000	83.320226 
3020.000000	83.274500 
3019.000000	83.230192 
3018.000000	83.188757 
3017.000000	83.149423 
3016.000000	83.109259 
3015.000000	83.065208 
3014.000000	83.017046 
3013.000000	82.968249 
3012.000000	82.923142 
3011.000000	82.882799 
3010.000000	82.844144 
3009.000000	82.803696 
3008.000000	82.761555 
3007.000000	82.720285 
3006.000000	82.680113 
3005.000000	82.637684 
3004.000000	82.590826 
3003.000000	82.542230 
3002.000000	82.496256 
3001.000000	82.453984 
3000.000000	82.414120 
2999.000000	82.377272 
2998.000000	82.345799 
2997.000000	82.320000 
2996.000000	82.297521 
2995.000000	82.275345 
2994.000000	82.248316 
2993.000000	82.207274 
2992.000000	82.146212 
2991.000000	82.074425 
2990.000000	82.015996 
2989.000000	81.992208 
2988.000000	82.006613 
2987.000000	82.048257 
2986.000000	82.104054 
2985.000000	82.164168 
2984.000000	82.219476 
2983.000000	82.262604 
2982.000000	82.293159 
2981.000000	82.317309 
2980.000000	82.340151 
2979.000000	82.360697 
2978.000000	82.374609 
2977.000000	82.378902 
2976.000000	82.373462 
2975.000000	82.361173 
2974.000000	82.347813 
2973.000000	82.339038 
2972.000000	82.335337 
2971.000000	82.331427 
2970.000000	82.322280 
2969.000000	82.309070 
2968.000000	82.298356 
2967.000000	82.296369 
2966.000000	82.304381 
2965.000000	82.318088 
2964.000000	82.330217 
2963.000000	82.334882 
2962.000000	82.331313 
2961.000000	82.324074 
2960.000000	82.319628 
2959.000000	82.322638 
2958.000000	82.334795 
2957.000000	82.355446 
2956.000000	82.382212 
2955.000000	82.411508 
2954.000000	82.439749 
2953.000000	82.464901 
2952.000000	82.487213 
2951.000000	82.508277 
2950.000000	82.528741 
2949.000000	82.546563 
2948.000000	82.557928 
2947.000000	82.560674 
2946.000000	82.557448 
2945.000000	82.555413 
2944.000000	82.562034 
2943.000000	82.580289 
2942.000000	82.606704 
2941.000000	82.633640 
2940.000000	82.654489 
2939.000000	82.668238 
2938.000000	82.679054 
2937.000000	82.691253 
2936.000000	82.705099 
2935.000000	82.717386 
2934.000000	82.724918 
2933.000000	82.726431 
2932.000000	82.722061 
2931.000000	82.712483 
2930.000000	82.698957 
2929.000000	82.683337 
2928.000000	82.667426 
2927.000000	82.652325 
2926.000000	82.638554 
2925.000000	82.626681 
2924.000000	82.617686 
2923.000000	82.612188 
2922.000000	82.609006 
2921.000000	82.605200 
2920.000000	82.598619 
2919.000000	82.590139 
2918.000000	82.582141 
2917.000000	82.574508 
2916.000000	82.563303 
2915.000000	82.544154 
2914.000000	82.516989 
2913.000000	82.487643 
2912.000000	82.464967 
2911.000000	82.454712 
2910.000000	82.454254 
2909.000000	82.453619 
2908.000000	82.444311 
2907.000000	82.427498 
2906.000000	82.410862 
2905.000000	82.397193 
2904.000000	82.380767 
2903.000000	82.358204 
2902.000000	82.339740 
2901.000000	82.343532 
2900.000000	82.377480 
2899.000000	82.430293 
2898.000000	82.480373 
2897.000000	82.513278 
2896.000000	82.529865 
2895.000000	82.540053 
2894.000000	82.552136 
2893.000000	82.567276 
2892.000000	82.581724 
2891.000000	82.592216 
2890.000000	82.598918 
2889.000000	82.603856 
2888.000000	82.608081 
2887.000000	82.611657 
2886.000000	82.616098 
2885.000000	82.625076 
2884.000000	82.641740 
2883.000000	82.665884 
2882.000000	82.694339 
2881.000000	82.723797 
2880.000000	82.752811 
2879.000000	82.781729 
2878.000000	82.811436 
2877.000000	82.841846 
2876.000000	82.870527 
2875.000000	82.892761 
2874.000000	82.904360 
2873.000000	82.905886 
2872.000000	82.904169 
2871.000000	82.908365 
2870.000000	82.923410 
2869.000000	82.946902 
2868.000000	82.972198 
2867.000000	82.994466 
2866.000000	83.014155 
2865.000000	83.035166 
2864.000000	83.060472 
2863.000000	83.089691 
2862.000000	83.120342 
2861.000000	83.150383 
2860.000000	83.178777 
2859.000000	83.204001 
2858.000000	83.223784 
2857.000000	83.237663 
2856.000000	83.248704 
2855.000000	83.260886 
2854.000000	83.275718 
2853.000000	83.292925 
2852.000000	83.313542 
2851.000000	83.339235 
2850.000000	83.367686 
2849.000000	83.391802 
2848.000000	83.406307 
2847.000000	83.413673 
2846.000000	83.421269 
2845.000000	83.433458 
2844.000000	83.448783 
2843.000000	83.464254 
2842.000000	83.479009 
2841.000000	83.493198 
2840.000000	83.506030 
2839.000000	83.516547 
2838.000000	83.524972 
2837.000000	83.532186 
2836.000000	83.538745 
2835.000000	83.545095 
2834.000000	83.551755 
2833.000000	83.558524 
2832.000000	83.564415 
2831.000000	83.569064 
2830.000000	83.573418 
2829.000000	83.578344 
2828.000000	83.583379 
2827.000000	83.587677 
2826.000000	83.591610 
2825.000000	83.596520 
2824.000000	83.602965 
2823.000000	83.609538 
2822.000000	83.613589 
2821.000000	83.613429 
2820.000000	83.610092 
2819.000000	83.606576 
2818.000000	83.605138 
2817.000000	83.605906 
2816.000000	83.608437 
2815.000000	83.613321 
2814.000000	83.620889 
2813.000000	83.629141 
2812.000000	83.634840 
2811.000000	83.636782 
2810.000000	83.636657 
2809.000000	83.636508 
2808.000000	83.636574 
2807.000000	83.635990 
2806.000000	83.634594 
2805.000000	83.633440 
2804.000000	83.633747 
2803.000000	83.635456 
2802.000000	83.636806 
2801.000000	83.635947 
2800.000000	83.633419 
2799.000000	83.632257 
2798.000000	83.634771 
2797.000000	83.639911 
2796.000000	83.644592 
2795.000000	83.646852 
2794.000000	83.646737 
2793.000000	83.645016 
2792.000000	83.642676 
2791.000000	83.641330 
2790.000000	83.642556 
2789.000000	83.646488 
2788.000000	83.651734 
2787.000000	83.656691 
2786.000000	83.660506 
2785.000000	83.663032 
2784.000000	83.664529 
2783.000000	83.665419 
2782.000000	83.665914 
2781.000000	83.665946 
2780.000000	83.665651 
2779.000000	83.665608 
2778.000000	83.666291 
2777.000000	83.667511 
2776.000000	83.668699 
2775.000000	83.669569 
2774.000000	83.670244 
2773.000000	83.670928 
2772.000000	83.671735 
2771.000000	83.672723 
2770.000000	83.673807 
2769.000000	83.674760 
2768.000000	83.675515 
2767.000000	83.676310 
2766.000000	83.677389 
2765.000000	83.678667 
2764.000000	83.679837 
2763.000000	83.680755 
2762.000000	83.681571 
2761.000000	83.682483 
2760.000000	83.683485 
2759.000000	83.684454 
2758.000000	83.685368 
2757.000000	83.686337 
2756.000000	83.687443 
2755.000000	83.688650 
2754.000000	83.689847 
2753.000000	83.690939 
2752.000000	83.691927 
2751.000000	83.692914 
2750.000000	83.694019 
2749.000000	83.695256 
2748.000000	83.696518 
2747.000000	83.697675 
2746.000000	83.698705 
2745.000000	83.699696 
2744.000000	83.700727 
2743.000000	83.701740 
2742.000000	83.702640 
2741.000000	83.703458 
2740.000000	83.704334 
2739.000000	83.705369 
2738.000000	83.706543 
2737.000000	83.707766 
2736.000000	83.709015 
2735.000000	83.710424 
2734.000000	83.712144 
2733.000000	83.714051 
2732.000000	83.715700 
2731.000000	83.716757 
2730.000000	83.717359 
2729.000000	83.717907 
2728.000000	83.718623 
2727.000000	83.719542 
2726.000000	83.720753 
2725.000000	83.722250 
2724.000000	83.723675 
2723.000000	83.724626 
2722.000000	83.725175 
2721.000000	83.725670 
2720.000000	83.726070 
2719.000000	83.725986 
2718.000000	83.725433 
2717.000000	83.725088 
2716.000000	83.725628 
2715.000000	83.727122 
2714.000000	83.729162 
2713.000000	83.731306 
2712.000000	83.733276 
2711.000000	83.734835 
2710.000000	83.735688 
2709.000000	83.735667 
2708.000000	83.735025 
2707.000000	83.734544 
2706.000000	83.735011 
2705.000000	83.736286 
2704.000000	83.737206 
2703.000000	83.736807 
2702.000000	83.735412 
2701.000000	83.734255 
2700.000000	83.734085 
2699.000000	83.734494 
2698.000000	83.734702 
2697.000000	83.734565 
2696.000000	83.734555 
2695.000000	83.734890 
2694.000000	83.735033 
2693.000000	83.734231 
2692.000000	83.732394 
2691.000000	83.730306 
2690.000000	83.728978 
2689.000000	83.728795 
2688.000000	83.729428 
2687.000000	83.730327 
2686.000000	83.731173 
2685.000000	83.731840 
2684.000000	83.732151 
2683.000000	83.731918 
2682.000000	83.731219 
2681.000000	83.730532 
2680.000000	83.730440 
2679.000000	83.731111 
2678.000000	83.732118 
2677.000000	83.732825 
2676.000000	83.732977 
2675.000000	83.732755 
2674.000000	83.732401 
2673.000000	83.732041 
2672.000000	83.731871 
2671.000000	83.732178 
2670.000000	83.732954 
2669.000000	83.733704 
2668.000000	83.733908 
2667.000000	83.733561 
2666.000000	83.733104 
2665.000000	83.732950 
2664.000000	83.733236 
2663.000000	83.733930 
2662.000000	83.734890 
2661.000000	83.735807 
2660.000000	83.736424 
2659.000000	83.736872 
2658.000000	83.737563 
2657.000000	83.738661 
2656.000000	83.739786 
2655.000000	83.740400 
2654.000000	83.740403 
2653.000000	83.740158 
2652.000000	83.740095 
2651.000000	83.740345 
2650.000000	83.740755 
2649.000000	83.741103 
2648.000000	83.741307 
2647.000000	83.741465 
2646.000000	83.741701 
2645.000000	83.742000 
2644.000000	83.742275 
2643.000000	83.742519 
2642.000000	83.742813 
2641.000000	83.743185 
2640.000000	83.743583 
2639.000000	83.743998 
2638.000000	83.744440 
2637.000000	83.744765 
2636.000000	83.744732 
2635.000000	83.744332 
2634.000000	83.743933 
2633.000000	83.743921 
2632.000000	83.744308 
2631.000000	83.744825 
2630.000000	83.745295 
2629.000000	83.745709 
2628.000000	83.746018 
2627.000000	83.746132 
2626.000000	83.746141 
2625.000000	83.746331 
2624.000000	83.746844 
2623.000000	83.747441 
2622.000000	83.747720 
2621.000000	83.747562 
2620.000000	83.747345 
2619.000000	83.747683 
2618.000000	83.748801 
2617.000000	83.750102 
2616.000000	83.750600 
2615.000000	83.749907 
2614.000000	83.748549 
2613.000000	83.747459 
2612.000000	83.747015 
2611.000000	83.746900 
2610.000000	83.746659 
2609.000000	83.746226 
2608.000000	83.745873 
2607.000000	83.745750 
2606.000000	83.745620 
2605.000000	83.745169 
2604.000000	83.744553 
2603.000000	83.744353 
2602.000000	83.744810 
2601.000000	83.745405 
2600.000000	83.745556 
2599.000000	83.745528 
2598.000000	83.746108 
2597.000000	83.747499 
2596.000000	83.749075 
2595.000000	83.750249 
2594.000000	83.751023 
2593.000000	83.751540 
2592.000000	83.751658 
2591.000000	83.751306 
2590.000000	83.750861 
2589.000000	83.750827 
2588.000000	83.751352 
2587.000000	83.752293 
2586.000000	83.753421 
2585.000000	83.754333 
2584.000000	83.754539 
2583.000000	83.753953 
2582.000000	83.753062 
2581.000000	83.752370 
2580.000000	83.751919 
2579.000000	83.751713 
2578.000000	83.752185 
2577.000000	83.753691 
2576.000000	83.755849 
2575.000000	83.757727 
2574.000000	83.758803 
2573.000000	83.759252 
2572.000000	83.759514 
2571.000000	83.759899 
2570.000000	83.760507 
2569.000000	83.761277 
2568.000000	83.762035 
2567.000000	83.762622 
2566.000000	83.763053 
2565.000000	83.763509 
2564.000000	83.764153 
2563.000000	83.764976 
2562.000000	83.765792 
2561.000000	83.766383 
2560.000000	83.766694 
2559.000000	83.766873 
2558.000000	83.767128 
2557.000000	83.767542 
2556.000000	83.768083 
2555.000000	83.768731 
2554.000000	83.769473 
2553.000000	83.770212 
2552.000000	83.770824 
2551.000000	83.771297 
2550.000000	83.771648 
2549.000000	83.771769 
2548.000000	83.771586 
2547.000000	83.771359 
2546.000000	83.771572 
2545.000000	83.772407 
2544.000000	83.773466 
2543.000000	83.774107 
2542.000000	83.774011 
2541.000000	83.773374 
2540.000000	83.772774 
2539.000000	83.772751 
2538.000000	83.773382 
2537.000000	83.774194 
2536.000000	83.774556 
2535.000000	83.774227 
2534.000000	83.773378 
2533.000000	83.772233 
2532.000000	83.770975 
2531.000000	83.769979 
2530.000000	83.769689 
2529.000000	83.770105 
2528.000000	83.770744 
2527.000000	83.771230 
2526.000000	83.771638 
2525.000000	83.772099 
2524.000000	83.772555 
2523.000000	83.773071 
2522.000000	83.773951 
2521.000000	83.775193 
2520.000000	83.776108 
2519.000000	83.775924 
2518.000000	83.774566 
2517.000000	83.772664 
2516.000000	83.771008 
2515.000000	83.770036 
2514.000000	83.769751 
2513.000000	83.769833 
2512.000000	83.769892 
2511.000000	83.769790 
2510.000000	83.769639 
2509.000000	83.769546 
2508.000000	83.769555 
2507.000000	83.769769 
2506.000000	83.770176 
2505.000000	83.770356 
2504.000000	83.769842 
2503.000000	83.768858 
2502.000000	83.768264 
2501.000000	83.768456 
2500.000000	83.768852 
2499.000000	83.768730 
2498.000000	83.768140 
2497.000000	83.767506 
2496.000000	83.766808 
2495.000000	83.765730 
2494.000000	83.764466 
2493.000000	83.763727 
2492.000000	83.763882 
2491.000000	83.764583 
2490.000000	83.765243 
2489.000000	83.765589 
2488.000000	83.765673 
2487.000000	83.765640 
2486.000000	83.765607 
2485.000000	83.765566 
2484.000000	83.765351 
2483.000000	83.764825 
2482.000000	83.764123 
2481.000000	83.763568 
2480.000000	83.763355 
2479.000000	83.763386 
2478.000000	83.763409 
2477.000000	83.763247 
2476.000000	83.762974 
2475.000000	83.762900 
2474.000000	83.763250 
2473.000000	83.763869 
2472.000000	83.764463 
2471.000000	83.765172 
2470.000000	83.766507 
2469.000000	83.768481 
2468.000000	83.770139 
2467.000000	83.770380 
2466.000000	83.769020 
2465.000000	83.766939 
2464.000000	83.765406 
2463.000000	83.765132 
2462.000000	83.765845 
2461.000000	83.766492 
2460.000000	83.766129 
2459.000000	83.764857 
2458.000000	83.763657 
2457.000000	83.763188 
2456.000000	83.763107 
2455.000000	83.762794 
2454.000000	83.762270 
2453.000000	83.761999 
2452.000000	83.762063 
2451.000000	83.762063 
2450.000000	83.761785 
2449.000000	83.761649 
2448.000000	83.762428 
2447.000000	83.764553 
2446.000000	83.767548 
2445.000000	83.770153 
2444.000000	83.771417 
2443.000000	83.771533 
2442.000000	83.771316 
2441.000000	83.770992 
2440.000000	83.770056 
2439.000000	83.768351 
2438.000000	83.766539 
2437.000000	83.765329 
2436.000000	83.764870 
2435.000000	83.765115 
2434.000000	83.766110 
2433.000000	83.767590 
2432.000000	83.768917 
2431.000000	83.769828 
2430.000000	83.770725 
2429.000000	83.771886 
2428.000000	83.772920 
2427.000000	83.773457 
2426.000000	83.773824 
2425.000000	83.774523 
2424.000000	83.775406 
2423.000000	83.775862 
2422.000000	83.775494 
2421.000000	83.774327 
2420.000000	83.772788 
2419.000000	83.771737 
2418.000000	83.772042 
2417.000000	83.773835 
2416.000000	83.776407 
2415.000000	83.779005 
2414.000000	83.781300 
2413.000000	83.782881 
2412.000000	83.783339 
2411.000000	83.783124 
2410.000000	83.783462 
2409.000000	83.784880 
2408.000000	83.786488 
2407.000000	83.787292 
2406.000000	83.787622 
2405.000000	83.788506 
2404.000000	83.790047 
2403.000000	83.791221 
2402.000000	83.791312 
2401.000000	83.790747 
2400.000000	83.790429 
2399.000000	83.790725 
2398.000000	83.791278 
2397.000000	83.791495 
2396.000000	83.791163 
2395.000000	83.790668 
2394.000000	83.790640 
2393.000000	83.791272 
2392.000000	83.792144 
2391.000000	83.792986 
2390.000000	83.793947 
2389.000000	83.795143 
2388.000000	83.796577 
2387.000000	83.798315 
2386.000000	83.800288 
2385.000000	83.802166 
2384.000000	83.803596 
2383.000000	83.804587 
2382.000000	83.805410 
2381.000000	83.806175 
2380.000000	83.806829 
2379.000000	83.807492 
2378.000000	83.808418 
2377.000000	83.809622 
2376.000000	83.810870 
2375.000000	83.812073 
2374.000000	83.813433 
2373.000000	83.815084 
2372.000000	83.816775 
2371.000000	83.818107 
2370.000000	83.818980 
2369.000000	83.819592 
2368.000000	83.820147 
2367.000000	83.820791 
2366.000000	83.821732 
2365.000000	83.823144 
2364.000000	83.824970 
2363.000000	83.826970 
2362.000000	83.828961 
2361.000000	83.830868 
2360.000000	83.832679 
2359.000000	83.834440 
2358.000000	83.836167 
2357.000000	83.837887 
2356.000000	83.839678 
2355.000000	83.841561 
2354.000000	83.843170 
2353.000000	83.844312 
2352.000000	83.845547 
2351.000000	83.847573 
2350.000000	83.850483 
2349.000000	83.853706 
2348.000000	83.856454 
2347.000000	83.858228 
2346.000000	83.859200 
2345.000000	83.860388 
2344.000000	83.862481 
2343.000000	83.865230 
2342.000000	83.867765 
2341.000000	83.869552 
2340.000000	83.870515 
2339.000000	83.871186 
2338.000000	83.872341 
2337.000000	83.874387 
2336.000000	83.877496 
2335.000000	83.881275 
2334.000000	83.884888 
2333.000000	83.887344 
2332.000000	83.888884 
2331.000000	83.889415 
2330.000000	83.888863 
2329.000000	83.887134 
2328.000000	83.885896 
2327.000000	83.885825 
2326.000000	83.886577 
2325.000000	83.887293 
2324.000000	83.888183 
2323.000000	83.889741 
2322.000000	83.892168 
2321.000000	83.895437 
2320.000000	83.899623 
2319.000000	83.903615 
2318.000000	83.905922 
2317.000000	83.904863 
2316.000000	83.900921 
2315.000000	83.895597 
2314.000000	83.891960 
2313.000000	83.891350 
2312.000000	83.893221 
2311.000000	83.893925 
2310.000000	83.890870 
2309.000000	83.883994 
2308.000000	83.876288 
2307.000000	83.869958 
2306.000000	83.865686 
2305.000000	83.863205 
2304.000000	83.863034 
2303.000000	83.864969 
2302.000000	83.868197 
2301.000000	83.870805 
2300.000000	83.871559 
2299.000000	83.869885 
2298.000000	83.866923 
2297.000000	83.864079 
2296.000000	83.862639 
2295.000000	83.862261 
2294.000000	83.861958 
2293.000000	83.860657 
2292.000000	83.858259 
2291.000000	83.855211 
2290.000000	83.852316 
2289.000000	83.850405 
2288.000000	83.849893 
2287.000000	83.850397 
2286.000000	83.850919 
2285.000000	83.850840 
2284.000000	83.850182 
2283.000000	83.849263 
2282.000000	83.848179 
2281.000000	83.847150 
2280.000000	83.846633 
2279.000000	83.846818 
2278.000000	83.847051 
2277.000000	83.846497 
2276.000000	83.845349 
2275.000000	83.844674 
2274.000000	83.844971 
2273.000000	83.845340 
2272.000000	83.844565 
2271.000000	83.842621 
2270.000000	83.840824 
2269.000000	83.840226 
2268.000000	83.840736 
2267.000000	83.841715 
2266.000000	83.842692 
2265.000000	83.843426 
2264.000000	83.843718 
2263.000000	83.843638 
2262.000000	83.843677 
2261.000000	83.844291 
2260.000000	83.845371 
2259.000000	83.846394 
2258.000000	83.847022 
2257.000000	83.847471 
2256.000000	83.848178 
2255.000000	83.849251 
2254.000000	83.850353 
2253.000000	83.851109 
2252.000000	83.851551 
2251.000000	83.851987 
2250.000000	83.852543 
2249.000000	83.853042 
2248.000000	83.853366 
2247.000000	83.853706 
2246.000000	83.854204 
2245.000000	83.854688 
2244.000000	83.855046 
2243.000000	83.855620 
2242.000000	83.856821 
2241.000000	83.858526 
2240.000000	83.860123 
2239.000000	83.861177 
2238.000000	83.861837 
2237.000000	83.862519 
2236.000000	83.863397 
2235.000000	83.864321 
2234.000000	83.865152 
2233.000000	83.865932 
2232.000000	83.866758 
2231.000000	83.867660 
2230.000000	83.868612 
2229.000000	83.869545 
2228.000000	83.870357 
2227.000000	83.871020 
2226.000000	83.871647 
2225.000000	83.872413 
2224.000000	83.873394 
2223.000000	83.874527 
2222.000000	83.875690 
2221.000000	83.876810 
2220.000000	83.877888 
2219.000000	83.878942 
2218.000000	83.879949 
2217.000000	83.880855 
2216.000000	83.881629 
2215.000000	83.882310 
2214.000000	83.882982 
2213.000000	83.883706 
2212.000000	83.884488 
2211.000000	83.885318 
2210.000000	83.886186 
2209.000000	83.887094 
2208.000000	83.888050 
2207.000000	83.889070 
2206.000000	83.890139 
2205.000000	83.891163 
2204.000000	83.892018 
2203.000000	83.892643 
2202.000000	83.893118 
2201.000000	83.893624 
2200.000000	83.894315 
2199.000000	83.895239 
2198.000000	83.896346 
2197.000000	83.897513 
2196.000000	83.898588 
2195.000000	83.899492 
2194.000000	83.900290 
2193.000000	83.901136 
2192.000000	83.902151 
2191.000000	83.903316 
2190.000000	83.904456 
2189.000000	83.905360 
2188.000000	83.906003 
2187.000000	83.906653 
2186.000000	83.907642 
2185.000000	83.908977 
2184.000000	83.910265 
2183.000000	83.911119 
2182.000000	83.911520 
2181.000000	83.911748 
2180.000000	83.912053 
2179.000000	83.912493 
2178.000000	83.913010 
2177.000000	83.913508 
2176.000000	83.913931 
2175.000000	83.914382 
2174.000000	83.915044 
2173.000000	83.915881 
2172.000000	83.916573 
2171.000000	83.916964 
2170.000000	83.917434 
2169.000000	83.918540 
2168.000000	83.920355 
2167.000000	83.922302 
2166.000000	83.923703 
2165.000000	83.924371 
2164.000000	83.924643 
2163.000000	83.924956 
2162.000000	83.925327 
2161.000000	83.925350 
2160.000000	83.924813 
2159.000000	83.924203 
2158.000000	83.924320 
2157.000000	83.925350 
2156.000000	83.926569 
2155.000000	83.927108 
2154.000000	83.926856 
2153.000000	83.926342 
2152.000000	83.926006 
2151.000000	83.925834 
2150.000000	83.925712 
2149.000000	83.925750 
2148.000000	83.926096 
2147.000000	83.926648 
2146.000000	83.927090 
2145.000000	83.927172 
2144.000000	83.926932 
2143.000000	83.926665 
2142.000000	83.926644 
2141.000000	83.926882 
2140.000000	83.927192 
2139.000000	83.927445 
2138.000000	83.927726 
2137.000000	83.928213 
2136.000000	83.928978 
2135.000000	83.929909 
2134.000000	83.930714 
2133.000000	83.931114 
2132.000000	83.931100 
2131.000000	83.930988 
2130.000000	83.931145 
2129.000000	83.931623 
2128.000000	83.932182 
2127.000000	83.932586 
2126.000000	83.932793 
2125.000000	83.932873 
2124.000000	83.932898 
2123.000000	83.932944 
2122.000000	83.933092 
2121.000000	83.933374 
2120.000000	83.933762 
2119.000000	83.934221 
2118.000000	83.934734 
2117.000000	83.935251 
2116.000000	83.935681 
2115.000000	83.935987 
2114.000000	83.936285 
2113.000000	83.936724 
2112.000000	83.937302 
2111.000000	83.937869 
2110.000000	83.938318 
2109.000000	83.938664 
2108.000000	83.938997 
2107.000000	83.939435 
2106.000000	83.940083 
2105.000000	83.940885 
2104.000000	83.941546 
2103.000000	83.941776 
2102.000000	83.941602 
2101.000000	83.941370 
2100.000000	83.941354 
2099.000000	83.941492 
2098.000000	83.941541 
2097.000000	83.941466 
2096.000000	83.941644 
2095.000000	83.942582 
2094.000000	83.944343 
2093.000000	83.946216 
2092.000000	83.947254 
2091.000000	83.947235 
2090.000000	83.946770 
2089.000000	83.946437 
2088.000000	83.946190 
2087.000000	83.945951 
2086.000000	83.946136 
2085.000000	83.947033 
2084.000000	83.948220 
2083.000000	83.949150 
2082.000000	83.949905 
2081.000000	83.950770 
2080.000000	83.951559 
2079.000000	83.952069 
2078.000000	83.952783 
2077.000000	83.954293 
2076.000000	83.956262 
2075.000000	83.957746 
2074.000000	83.958352 
2073.000000	83.958334 
2072.000000	83.957838 
2071.000000	83.956825 
2070.000000	83.955605 
2069.000000	83.954713 
2068.000000	83.954290 
2067.000000	83.954255 
2066.000000	83.954863 
2065.000000	83.956316 
2064.000000	83.957937 
2063.000000	83.958656 
2062.000000	83.958355 
2061.000000	83.957929 
2060.000000	83.957958 
2059.000000	83.957925 
2058.000000	83.956954 
2057.000000	83.954743 
2056.000000	83.951752 
2055.000000	83.948906 
2054.000000	83.947219 
2053.000000	83.947271 
2052.000000	83.948777 
2051.000000	83.950855 
2050.000000	83.952810 
2049.000000	83.954478 
2048.000000	83.955792 
2047.000000	83.956341 
2046.000000	83.955559 
2045.000000	83.953275 
2044.000000	83.950003 
2043.000000	83.946810 
2042.000000	83.944779 
2041.000000	83.944289 
2040.000000	83.944721 
2039.000000	83.945067 
2038.000000	83.944939 
2037.000000	83.944848 
2036.000000	83.945536 
2035.000000	83.947190 
2034.000000	83.949244 
2033.000000	83.950891 
2032.000000	83.951821 
2031.000000	83.952383 
2030.000000	83.952951 
2029.000000	83.953268 
2028.000000	83.952688 
2027.000000	83.951097 
2026.000000	83.949217 
2025.000000	83.947900 
2024.000000	83.947258 
2023.000000	83.946744 
2022.000000	83.945898 
2021.000000	83.944836 
2020.000000	83.944010 
2019.000000	83.943598 
2018.000000	83.943235 
2017.000000	83.942424 
2016.000000	83.941277 
2015.000000	83.940647 
2014.000000	83.941244 
2013.000000	83.942835 
2012.000000	83.944410 
2011.000000	83.945170 
2010.000000	83.945109 
2009.000000	83.944634 
2008.000000	83.944008 
2007.000000	83.943305 
2006.000000	83.942628 
2005.000000	83.942121 
2004.000000	83.941890 
2003.000000	83.942015 
2002.000000	83.942499 
2001.000000	83.943099 
2000.000000	83.943367 
1999.000000	83.942974 
1998.000000	83.941949 
1997.000000	83.940644 
1996.000000	83.939610 
1995.000000	83.939339 
1994.000000	83.939916 
1993.000000	83.940799 
1992.000000	83.941250 
1991.000000	83.941224 
1990.000000	83.941352 
1989.000000	83.941937 
1988.000000	83.942476 
1987.000000	83.942431 
1986.000000	83.942090 
1985.000000	83.942180 
1984.000000	83.942835 
1983.000000	83.943519 
1982.000000	83.943884 
1981.000000	83.944135 
1980.000000	83.944525 
1979.000000	83.944962 
1978.000000	83.945342 
1977.000000	83.945821 
1976.000000	83.946588 
1975.000000	83.947490 
1974.000000	83.948046 
1973.000000	83.947886 
1972.000000	83.947213 
1971.000000	83.946839 
1970.000000	83.947445 
1969.000000	83.948780 
1968.000000	83.949805 
1967.000000	83.949933 
1966.000000	83.949885 
1965.000000	83.950907 
1964.000000	83.953414 
1963.000000	83.956726 
1962.000000	83.959845 
1961.000000	83.962155 
1960.000000	83.963474 
1959.000000	83.963889 
1958.000000	83.963625 
1957.000000	83.962977 
1956.000000	83.962180 
1955.000000	83.961348 
1954.000000	83.960543 
1953.000000	83.959833 
1952.000000	83.959339 
1951.000000	83.959293 
1950.000000	83.959824 
1949.000000	83.960707 
1948.000000	83.961499 
1947.000000	83.962093 
1946.000000	83.962862 
1945.000000	83.964056 
1944.000000	83.965302 
1943.000000	83.965963 
1942.000000	83.965917 
1941.000000	83.965685 
1940.000000	83.965846 
1939.000000	83.966563 
1938.000000	83.967582 
1937.000000	83.968442 
1936.000000	83.968775 
1935.000000	83.968580 
1934.000000	83.968281 
1933.000000	83.968420 
1932.000000	83.969164 
1931.000000	83.970167 
1930.000000	83.970912 
1929.000000	83.971204 
1928.000000	83.971247 
1927.000000	83.971379 
1926.000000	83.971806 
1925.000000	83.972366 
1924.000000	83.972731 
1923.000000	83.972890 
1922.000000	83.973381 
1921.000000	83.974713 
1920.000000	83.976575 
1919.000000	83.977831 
1918.000000	83.977535 
1917.000000	83.975830 
1916.000000	83.973900 
1915.000000	83.972820 
1914.000000	83.972755 
1913.000000	83.973139 
1912.000000	83.973312 
1911.000000	83.973228 
1910.000000	83.973413 
1909.000000	83.974180 
1908.000000	83.975059 
1907.000000	83.975344 
1906.000000	83.975058 
1905.000000	83.974761 
1904.000000	83.974947 
1903.000000	83.975672 
1902.000000	83.976627 
1901.000000	83.977261 
1900.000000	83.977113 
1899.000000	83.976374 
1898.000000	83.975927 
1897.000000	83.976193 
1896.000000	83.976417 
1895.000000	83.975643 
1894.000000	83.974283 
1893.000000	83.973814 
1892.000000	83.974961 
1891.000000	83.977049 
1890.000000	83.979026 
1889.000000	83.980571 
1888.000000	83.981969 
1887.000000	83.983463 
1886.000000	83.985166 
1885.000000	83.987263 
1884.000000	83.990045 
1883.000000	83.993632 
1882.000000	83.997455 
1881.000000	84.000361 
1880.000000	84.001567 
1879.000000	84.001539 
1878.000000	84.001590 
1877.000000	84.002277 
1876.000000	84.003034 
1875.000000	84.003705 
1874.000000	84.005122 
1873.000000	84.007623 
1872.000000	84.010000 
1871.000000	84.010783 
1870.000000	84.010315 
1869.000000	84.010659 
1868.000000	84.012987 
1867.000000	84.016338 
1866.000000	84.019416 
1865.000000	84.022059 
1864.000000	84.024740 
1863.000000	84.027729 
1862.000000	84.030883 
1861.000000	84.033777 
1860.000000	84.035984 
1859.000000	84.037504 
1858.000000	84.038918 
1857.000000	84.040733 
1856.000000	84.042795 
1855.000000	84.044706 
1854.000000	84.046464 
1853.000000	84.048475 
1852.000000	84.050972 
1851.000000	84.053547 
1850.000000	84.055715 
1849.000000	84.057426 
1848.000000	84.059005 
1847.000000	84.060673 
1846.000000	84.062352 
1845.000000	84.063940 
1844.000000	84.065638 
1843.000000	84.067784 
1842.000000	84.070249 
1841.000000	84.072486 
1840.000000	84.074157 
1839.000000	84.075473 
1838.000000	84.077041 
1837.000000	84.079175 
1836.000000	84.081563 
1835.000000	84.083676 
1834.000000	84.085392 
1833.000000	84.087170 
1832.000000	84.089500 
1831.000000	84.092009 
1830.000000	84.093677 
1829.000000	84.094205 
1828.000000	84.094769 
1827.000000	84.096342 
1826.000000	84.098204 
1825.000000	84.098887 
1824.000000	84.098321 
1823.000000	84.098150 
1822.000000	84.099574 
1821.000000	84.102082 
1820.000000	84.104418 
1819.000000	84.106144 
1818.000000	84.107761 
1817.000000	84.109607 
1816.000000	84.111823 
1815.000000	84.114495 
1814.000000	84.116787 
1813.000000	84.116882 
1812.000000	84.114227 
1811.000000	84.111594 
1810.000000	84.112448 
1809.000000	84.117053 
1808.000000	84.123120 
1807.000000	84.129323 
1806.000000	84.136376 
1805.000000	84.144272 
1804.000000	84.150371 
1803.000000	84.151380 
1802.000000	84.147082 
1801.000000	84.141857 
1800.000000	84.139594 
1799.000000	84.140282 
1798.000000	84.141955 
1797.000000	84.143323 
1796.000000	84.144558 
1795.000000	84.147158 
1794.000000	84.152357 
1793.000000	84.158848 
1792.000000	84.163445 
1791.000000	84.165518 
1790.000000	84.166924 
1789.000000	84.169818 
1788.000000	84.175931 
1787.000000	84.185514 
1786.000000	84.196419 
1785.000000	84.205434 
1784.000000	84.211491 
1783.000000	84.216509 
1782.000000	84.222021 
1781.000000	84.226507 
1780.000000	84.225977 
1779.000000	84.221108 
1778.000000	84.217790 
1777.000000	84.219511 
1776.000000	84.223419 
1775.000000	84.226295 
1774.000000	84.230616 
1773.000000	84.240619 
1772.000000	84.253714 
1771.000000	84.264951 
1770.000000	84.276045 
1769.000000	84.288913 
1768.000000	84.301656 
1767.000000	84.312787 
1766.000000	84.324995 
1765.000000	84.342032 
1764.000000	84.363006 
1763.000000	84.383034 
1762.000000	84.398632 
1761.000000	84.411394 
1760.000000	84.424212 
1759.000000	84.438865 
1758.000000	84.455342 
1757.000000	84.471419 
1756.000000	84.482635 
1755.000000	84.488046 
1754.000000	84.492476 
1753.000000	84.499901 
1752.000000	84.509356 
1751.000000	84.519880 
1750.000000	84.534707 
1749.000000	84.554333 
1748.000000	84.573278 
1747.000000	84.585738 
1746.000000	84.593093 
1745.000000	84.600799 
1744.000000	84.610207 
1743.000000	84.619006 
1742.000000	84.626382 
1741.000000	84.634190 
1740.000000	84.641930 
1739.000000	84.646222 
1738.000000	84.646317 
1737.000000	84.644148 
1736.000000	84.637931 
1735.000000	84.621289 
1734.000000	84.593665 
1733.000000	84.570947 
1732.000000	84.564239 
1731.000000	84.567909 
1730.000000	84.573294 
1729.000000	84.575295 
1728.000000	84.572311 
1727.000000	84.564864 
1726.000000	84.555303 
1725.000000	84.545988 
1724.000000	84.536748 
1723.000000	84.526578 
1722.000000	84.515002 
1721.000000	84.502984 
1720.000000	84.491286 
1719.000000	84.478396 
1718.000000	84.460923 
1717.000000	84.439809 
1716.000000	84.423226 
1715.000000	84.415046 
1714.000000	84.411028 
1713.000000	84.405381 
1712.000000	84.395798 
1711.000000	84.383087 
1710.000000	84.368476 
1709.000000	84.353239 
1708.000000	84.339154 
1707.000000	84.327743 
1706.000000	84.319269 
1705.000000	84.311607 
1704.000000	84.303231 
1703.000000	84.293945 
1702.000000	84.284588 
1701.000000	84.277557 
1700.000000	84.271831 
1699.000000	84.267405 
1698.000000	84.268876 
1697.000000	84.278787 
1696.000000	84.293103 
1695.000000	84.302850 
1694.000000	84.304699 
1693.000000	84.302916 
1692.000000	84.302191 
1691.000000	84.304620 
1690.000000	84.309014 
1689.000000	84.312130 
1688.000000	84.311627 
1687.000000	84.308921 
1686.000000	84.310192 
1685.000000	84.319383 
1684.000000	84.327863 
1683.000000	84.328191 
1682.000000	84.326962 
1681.000000	84.328434 
1680.000000	84.331253 
1679.000000	84.334676 
1678.000000	84.341792 
1677.000000	84.355371 
1676.000000	84.370700 
1675.000000	84.377868 
1674.000000	84.375820 
1673.000000	84.373490 
1672.000000	84.375235 
1671.000000	84.380274 
1670.000000	84.386771 
1669.000000	84.394248 
1668.000000	84.401715 
1667.000000	84.406378 
1666.000000	84.407246 
1665.000000	84.406614 
1664.000000	84.407525 
1663.000000	84.410617 
1662.000000	84.414173 
1661.000000	84.418572 
1660.000000	84.424169 
1659.000000	84.429675 
1658.000000	84.434284 
1657.000000	84.437847 
1656.000000	84.439051 
1655.000000	84.436523 
1654.000000	84.432728 
1653.000000	84.428967 
1652.000000	84.427655 
1651.000000	84.432196 
1650.000000	84.438665 
1649.000000	84.444896 
1648.000000	84.450399 
1647.000000	84.452690 
1646.000000	84.450598 
1645.000000	84.448009 
1644.000000	84.447621 
1643.000000	84.448190 
1642.000000	84.447394 
1641.000000	84.444684 
1640.000000	84.440744 
1639.000000	84.436476 
1638.000000	84.432821 
1637.000000	84.431002 
1636.000000	84.431165 
1635.000000	84.430958 
1634.000000	84.431096 
1633.000000	84.431665 
1632.000000	84.431617 
1631.000000	84.430787 
1630.000000	84.430071 
1629.000000	84.430418 
1628.000000	84.431333 
1627.000000	84.430543 
1626.000000	84.426369 
1625.000000	84.420091 
1624.000000	84.415176 
1623.000000	84.414356 
1622.000000	84.416830 
1621.000000	84.419538 
1620.000000	84.419773 
1619.000000	84.417418 
1618.000000	84.415046 
1617.000000	84.415043 
1616.000000	84.416389 
1615.000000	84.416734 
1614.000000	84.415853 
1613.000000	84.415093 
1612.000000	84.415458 
1611.000000	84.416371 
1610.000000	84.416725 
1609.000000	84.416837 
1608.000000	84.417456 
1607.000000	84.418098 
1606.000000	84.418035 
1605.000000	84.418062 
1604.000000	84.419095 
1603.000000	84.420942 
1602.000000	84.422835 
1601.000000	84.424156 
1600.000000	84.424644 
1599.000000	84.424509 
1598.000000	84.424559 
1597.000000	84.425636 
1596.000000	84.427835 
1595.000000	84.430689 
1594.000000	84.433692 
1593.000000	84.436409 
1592.000000	84.438341 
1591.000000	84.439289 
1590.000000	84.439741 
1589.000000	84.440403 
1588.000000	84.441356 
1587.000000	84.442241 
1586.000000	84.442958 
1585.000000	84.443787 
1584.000000	84.444809 
1583.000000	84.445687 
1582.000000	84.446833 
1581.000000	84.449102 
1580.000000	84.452191 
1579.000000	84.454589 
1578.000000	84.455794 
1577.000000	84.456998 
1576.000000	84.458879 
1575.000000	84.460299 
1574.000000	84.460509 
1573.000000	84.459769 
1572.000000	84.458728 
1571.000000	84.458685 
1570.000000	84.460796 
1569.000000	84.464725 
1568.000000	84.468851 
1567.000000	84.471720 
1566.000000	84.473510 
1565.000000	84.475231 
1564.000000	84.477267 
1563.000000	84.478784 
1562.000000	84.479350 
1561.000000	84.479417 
1560.000000	84.480369 
1559.000000	84.480721 
1558.000000	84.479109 
1557.000000	84.481705 
1556.000000	84.487311 
1555.000000	84.490934 
1554.000000	84.491361 
1553.000000	84.491667 
1552.000000	84.493813 
1551.000000	84.495994 
1550.000000	84.495936 
1549.000000	84.494103 
1548.000000	84.492865 
1547.000000	84.492923 
1546.000000	84.493238 
1545.000000	84.493199 
1544.000000	84.493334 
1543.000000	84.493926 
1542.000000	84.495270 
1541.000000	84.496955 
1540.000000	84.495461 
1539.000000	84.489718 
1538.000000	84.485248 
1537.000000	84.483569 
1536.000000	84.482166 
1535.000000	84.479181 
1534.000000	84.475513 
1533.000000	84.473779 
1532.000000	84.474392 
1531.000000	84.475038 
1530.000000	84.474217 
1529.000000	84.472464 
1528.000000	84.470907 
1527.000000	84.469993 
1526.000000	84.469577 
1525.000000	84.469536 
1524.000000	84.469548 
1523.000000	84.469094 
1522.000000	84.467697 
1521.000000	84.465257 
1520.000000	84.462756 
1519.000000	84.461227 
1518.000000	84.461251 
1517.000000	84.462511 
1516.000000	84.463561 
1515.000000	84.463691 
1514.000000	84.463533 
1513.000000	84.463419 
1512.000000	84.462730 
1511.000000	84.461454 
1510.000000	84.460254 
1509.000000	84.459732 
1508.000000	84.460326 
1507.000000	84.462087 
1506.000000	84.462149 
1505.000000	84.460243 
1504.000000	84.458716 
1503.000000	84.458569 
1502.000000	84.460014 
1501.000000	84.462833 
1500.000000	84.466567 
1499.000000	84.471287 
1498.000000	84.476993 
1497.000000	84.481504 
1496.000000	84.481335 
1495.000000	84.476428 
1494.000000	84.470098 
1493.000000	84.465417 
1492.000000	84.463632 
1491.000000	84.465119 
1490.000000	84.469265 
1489.000000	84.473779 
1488.000000	84.476018 
1487.000000	84.476276 
1486.000000	84.476631 
1485.000000	84.477722 
1484.000000	84.478539 
1483.000000	84.477661 
1482.000000	84.474867 
1481.000000	84.471578 
1480.000000	84.470594 
1479.000000	84.474015 
1478.000000	84.481142 
1477.000000	84.487793 
1476.000000	84.489962 
1475.000000	84.488295 
1474.000000	84.487780 
1473.000000	84.492791 
1472.000000	84.501223 
1471.000000	84.508722 
1470.000000	84.515529 
1469.000000	84.523461 
1468.000000	84.531226 
1467.000000	84.536256 
1466.000000	84.539579 
1465.000000	84.545941 
1464.000000	84.556073 
1463.000000	84.564923 
1462.000000	84.569666 
1461.000000	84.572921 
1460.000000	84.579389 
1459.000000	84.590949 
1458.000000	84.601648 
1457.000000	84.597111 
1456.000000	84.573127 
1455.000000	84.544611 
1454.000000	84.525619 
1453.000000	84.519255 
1452.000000	84.519706 
1451.000000	84.520116 
1450.000000	84.520733 
1449.000000	84.526473 
1448.000000	84.536789 
1447.000000	84.544354 
1446.000000	84.545372 
1445.000000	84.544065 
1444.000000	84.543821 
1443.000000	84.543486 
1442.000000	84.541075 
1441.000000	84.537319 
1440.000000	84.535119 
1439.000000	84.537476 
1438.000000	84.544626 
1437.000000	84.550636 
1436.000000	84.548021 
1435.000000	84.538044 
1434.000000	84.529620 
1433.000000	84.528746 
1432.000000	84.534295 
1431.000000	84.540802 
1430.000000	84.542361 
1429.000000	84.534666 
1428.000000	84.517460 
1427.000000	84.495918 
1426.000000	84.476689 
1425.000000	84.462201 
1424.000000	84.449267 
1423.000000	84.434986 
1422.000000	84.419998 
1421.000000	84.404354 
1420.000000	84.382514 
1419.000000	84.348081 
1418.000000	84.304937 
1417.000000	84.262825 
1416.000000	84.226463 
1415.000000	84.194494 
1414.000000	84.163053 
1413.000000	84.129530 
1412.000000	84.095624 
1411.000000	84.066359 
1410.000000	84.044445 
1409.000000	84.028484 
1408.000000	84.017463 
1407.000000	84.012847 
1406.000000	84.016016 
1405.000000	84.027651 
1404.000000	84.047653 
1403.000000	84.073629 
1402.000000	84.101218 
1401.000000	84.127340 
1400.000000	84.150534 
1399.000000	84.167420 
1398.000000	84.168652 
1397.000000	84.142113 
1396.000000	84.086365 
1395.000000	84.026287 
1394.000000	84.003895 
1393.000000	84.037609 
1392.000000	84.107737 
1391.000000	84.180653 
1390.000000	84.234362 
1389.000000	84.265142 
1388.000000	84.279893 
1387.000000	84.286747 
1386.000000	84.290456 
1385.000000	84.294056 
1384.000000	84.300058 
1383.000000	84.309769 
1382.000000	84.323628 
1381.000000	84.341944 
1380.000000	84.363537 
1379.000000	84.385323 
1378.000000	84.405590 
1377.000000	84.426227 
1376.000000	84.449975 
1375.000000	84.476293 
1374.000000	84.501554 
1373.000000	84.522687 
1372.000000	84.539093 
1371.000000	84.552366 
1370.000000	84.565654 
1369.000000	84.581957 
1368.000000	84.602195 
1367.000000	84.624159 
1366.000000	84.644549 
1365.000000	84.661914 
1364.000000	84.676456 
1363.000000	84.689153 
1362.000000	84.701276 
1361.000000	84.713112 
1360.000000	84.724048 
1359.000000	84.734826 
1358.000000	84.747944 
1357.000000	84.764426 
1356.000000	84.781049 
1355.000000	84.793399 
1354.000000	84.801988 
1353.000000	84.811971 
1352.000000	84.824999 
1351.000000	84.836027 
1350.000000	84.841889 
1349.000000	84.845702 
1348.000000	84.849481 
1347.000000	84.850696 
1346.000000	84.848630 
1345.000000	84.847207 
1344.000000	84.849091 
1343.000000	84.851145 
1342.000000	84.848535 
1341.000000	84.840628 
1340.000000	84.831511 
1339.000000	84.825964 
1338.000000	84.825123 
1337.000000	84.825994 
1336.000000	84.824159 
1335.000000	84.817410 
1334.000000	84.808691 
1333.000000	84.804232 
1332.000000	84.806904 
1331.000000	84.813017 
1330.000000	84.816573 
1329.000000	84.814961 
1328.000000	84.810120 
1327.000000	84.806125 
1326.000000	84.806387 
1325.000000	84.810418 
1324.000000	84.813859 
1323.000000	84.811963 
1322.000000	84.803811 
1321.000000	84.792792 
1320.000000	84.783366 
1319.000000	84.778069 
1318.000000	84.777164 
1317.000000	84.779654 
1316.000000	84.783441 
1315.000000	84.785480 
1314.000000	84.783544 
1313.000000	84.778537 
1312.000000	84.773789 
1311.000000	84.771250 
1310.000000	84.769117 
1309.000000	84.764135 
1308.000000	84.756134 
1307.000000	84.749123 
1306.000000	84.747151 
1305.000000	84.749148 
1304.000000	84.750023 
1303.000000	84.746088 
1302.000000	84.738323 
1301.000000	84.729869 
1300.000000	84.721962 
1299.000000	84.713464 
1298.000000	84.703600 
1297.000000	84.693870 
1296.000000	84.687038 
1295.000000	84.684753 
1294.000000	84.685539 
1293.000000	84.685187 
1292.000000	84.679981 
1291.000000	84.669877 
1290.000000	84.657722 
1289.000000	84.645357 
1288.000000	84.632049 
1287.000000	84.617107 
1286.000000	84.602199 
1285.000000	84.590113 
1284.000000	84.582487 
1283.000000	84.578970 
1282.000000	84.576856 
1281.000000	84.571401 
1280.000000	84.558815 
1279.000000	84.539689 
1278.000000	84.518342 
1277.000000	84.498938 
1276.000000	84.483070 
1275.000000	84.470585 
1274.000000	84.459977 
1273.000000	84.447588 
1272.000000	84.429261 
1271.000000	84.404298 
1270.000000	84.376154 
1269.000000	84.348623 
1268.000000	84.323300 
1267.000000	84.300632 
1266.000000	84.279901 
1265.000000	84.257674 
1264.000000	84.229957 
1263.000000	84.197541 
1262.000000	84.166422 
1261.000000	84.141314 
1260.000000	84.121315 
1259.000000	84.103053 
1258.000000	84.084906 
1257.000000	84.066861 
1256.000000	84.049235 
1255.000000	84.033275 
1254.000000	84.019915 
1253.000000	84.006556 
1252.000000	83.989057 
1251.000000	83.969631 
1250.000000	83.958539 
1249.000000	83.964046 
1248.000000	83.983436 
1247.000000	84.005888 
1246.000000	84.020690 
1245.000000	84.020435 
1244.000000	84.002526 
1243.000000	83.975493 
1242.000000	83.959980 
1241.000000	83.972923 
1240.000000	84.009646 
1239.000000	84.046509 
1238.000000	84.063988 
1237.000000	84.061978 
1236.000000	84.051297 
1235.000000	84.039268 
1234.000000	84.027975 
1233.000000	84.019796 
1232.000000	84.016502 
1231.000000	84.014796 
1230.000000	84.009189 
1229.000000	83.999232 
1228.000000	83.989385 
1227.000000	83.981950 
1226.000000	83.974319 
1225.000000	83.963823 
1224.000000	83.952158 
1223.000000	83.944190 
1222.000000	83.944653 
1221.000000	83.956314 
1220.000000	83.978589 
1219.000000	84.006100 
1218.000000	84.029997 
1217.000000	84.042713 
1216.000000	84.041823 
1215.000000	84.029951 
1214.000000	84.012209 
1213.000000	83.993652 
1212.000000	83.977769 
1211.000000	83.965612 
1210.000000	83.955407 
1209.000000	83.943487 
1208.000000	83.927182 
1207.000000	83.907888 
1206.000000	83.890597 
1205.000000	83.878618 
1204.000000	83.868547 
1203.000000	83.852137 
1202.000000	83.823887 
1201.000000	83.786083 
1200.000000	83.746277 
1199.000000	83.710630 
1198.000000	83.679813 
1197.000000	83.650262 
1196.000000	83.618376 
1195.000000	83.583706 
1194.000000	83.548707 
1193.000000	83.516038 
1192.000000	83.487041 
1191.000000	83.461945 
1190.000000	83.439734 
1189.000000	83.417989 
1188.000000	83.394803 
1187.000000	83.371092 
1186.000000	83.348988 
1185.000000	83.327648 
1184.000000	83.303469 
1183.000000	83.275829 
1182.000000	83.249864 
1181.000000	83.230907 
1180.000000	83.217751 
1179.000000	83.203651 
1178.000000	83.182526 
1177.000000	83.151948 
1176.000000	83.112054 
1175.000000	83.065466 
1174.000000	83.017996 
1173.000000	82.975661 
1172.000000	82.940030 
1171.000000	82.907987 
1170.000000	82.875737 
1169.000000	82.841780 
1168.000000	82.806918 
1167.000000	82.773640 
1166.000000	82.745452 
1165.000000	82.725194 
1164.000000	82.714041 
1163.000000	82.712813 
1162.000000	82.722836 
1161.000000	82.743510 
1160.000000	82.769776 
1159.000000	82.794269 
1158.000000	82.811899 
1157.000000	82.820389 
1156.000000	82.817426 
1155.000000	82.800985 
1154.000000	82.772930 
1153.000000	82.739103 
1152.000000	82.704450 
1151.000000	82.669925 
1150.000000	82.634788 
1149.000000	82.599729 
1148.000000	82.566377 
1147.000000	82.534936 
1146.000000	82.503356 
1145.000000	82.468710 
1144.000000	82.429723 
1143.000000	82.388645 
1142.000000	82.349824 
1141.000000	82.315190 
1140.000000	82.282032 
1139.000000	82.246476 
1138.000000	82.207927 
1137.000000	82.168283 
1136.000000	82.128020 
1135.000000	82.085997 
1134.000000	82.042846 
1133.000000	82.001138 
1132.000000	81.961408 
1131.000000	81.920529 
1130.000000	81.874992 
1129.000000	81.824286 
1128.000000	81.770474 
1127.000000	81.716274 
1126.000000	81.664640 
1125.000000	81.618266 
1124.000000	81.577136 
1123.000000	81.537015 
1122.000000	81.492605 
1121.000000	81.443045 
1120.000000	81.392781 
1119.000000	81.345957 
1118.000000	81.301060 
1117.000000	81.252659 
1116.000000	81.197605 
1115.000000	81.137356 
1114.000000	81.074601 
1113.000000	81.010715 
1112.000000	80.947819 
1111.000000	80.890158 
1110.000000	80.840293 
1109.000000	80.795510 
1108.000000	80.750527 
1107.000000	80.702836 
1106.000000	80.653565 
1105.000000	80.604856 
1104.000000	80.559325 
1103.000000	80.520722 
1102.000000	80.491882 
1101.000000	80.472117 
1100.000000	80.459215 
1099.000000	80.451515 
1098.000000	80.446874 
1097.000000	80.439942 
1096.000000	80.424404 
1095.000000	80.396421 
1094.000000	80.351773 
1093.000000	80.281359 
1092.000000	80.177007 
1091.000000	80.044495 
1090.000000	79.904743 
1089.000000	79.776157 
1088.000000	79.658750 
1087.000000	79.540002 
1086.000000	79.412623 
1085.000000	79.280990 
1084.000000	79.151907 
1083.000000	79.025916 
1082.000000	78.900418 
1081.000000	78.777815 
1080.000000	78.666484 
1079.000000	78.573366 
1078.000000	78.497998 
1077.000000	78.435295 
1076.000000	78.382230 
1075.000000	78.339532 
1074.000000	78.308613 
1073.000000	78.289329 
1072.000000	78.277328 
1071.000000	78.257697 
1070.000000	78.204160 
1069.000000	78.096964 
1068.000000	77.949533 
1067.000000	77.812100 
1066.000000	77.736730 
1065.000000	77.736735 
1064.000000	77.782404 
1063.000000	77.829832 
1062.000000	77.849168 
1061.000000	77.830415 
1060.000000	77.779084 
1059.000000	77.716479 
1058.000000	77.674272 
1057.000000	77.673266 
1056.000000	77.704878 
1055.000000	77.739136 
1054.000000	77.752629 
1053.000000	77.744440 
1052.000000	77.724358 
1051.000000	77.693579 
1050.000000	77.643802 
1049.000000	77.571836 
1048.000000	77.486461 
1047.000000	77.399726 
1046.000000	77.316623 
1045.000000	77.235240 
1044.000000	77.154143 
1043.000000	77.076753 
1042.000000	77.007624 
1041.000000	76.945538 
1040.000000	76.883727 
1039.000000	76.820622 
1038.000000	76.769100 
1037.000000	76.748560 
1036.000000	76.764672 
1035.000000	76.801157 
1034.000000	76.835633 
1033.000000	76.859204 
1032.000000	76.872640 
1031.000000	76.869133 
1030.000000	76.837158 
1029.000000	76.785035 
1028.000000	76.748539 
1027.000000	76.760588 
1026.000000	76.817388 
1025.000000	76.883867 
1024.000000	76.930985 
1023.000000	76.957410 
1022.000000	76.975529 
1021.000000	76.989565 
1020.000000	76.993684 
1019.000000	76.984916 
1018.000000	76.970248 
1017.000000	76.961224 
1016.000000	76.965319 
1015.000000	76.982730 
1014.000000	77.008644 
1013.000000	77.037373 
1012.000000	77.064597 
1011.000000	77.086850 
1010.000000	77.102174 
1009.000000	77.113557 
1008.000000	77.129498 
1007.000000	77.157472 
1006.000000	77.196421 
1005.000000	77.237816 
1004.000000	77.274287 
1003.000000	77.305491 
1002.000000	77.335950 
1001.000000	77.369542 
1000.000000	77.406759 
999.000000	 77.445688 
998.000000	 77.484400 
997.000000	 77.522326 
996.000000	 77.559393 
995.000000	 77.594468 
994.000000	 77.625847 
993.000000	 77.653269 
992.000000	 77.678341 
991.000000	 77.703081 
990.000000	 77.729351 
989.000000	 77.759360 
988.000000	 77.794418 
987.000000	 77.832927 
986.000000	 77.872386 
985.000000	 77.914123 
984.000000	 77.962293 
983.000000	 78.017375 
982.000000	 78.076201 
981.000000	 78.138324 
980.000000	 78.206551 
979.000000	 78.280158 
978.000000	 78.352732 
977.000000	 78.420499 
976.000000	 78.488496 
975.000000	 78.563888 
974.000000	 78.646565 
973.000000	 78.730784 
972.000000	 78.813375 
971.000000	 78.895624 
970.000000	 78.978960 
969.000000	 79.063540 
968.000000	 79.150095 
967.000000	 79.239151 
966.000000	 79.329298 
965.000000	 79.419667 
964.000000	 79.512782 
963.000000	 79.610671 
962.000000	 79.708524 
961.000000	 79.796918 
960.000000	 79.871837 
959.000000	 79.939436 
958.000000	 80.009144 
957.000000	 80.083671 
956.000000	 80.157988 
955.000000	 80.226892 
954.000000	 80.290282 
953.000000	 80.350152 
952.000000	 80.405535 
951.000000	 80.454086 
950.000000	 80.497793 
949.000000	 80.542562 
948.000000	 80.590508 
947.000000	 80.636539 
946.000000	 80.675317 
945.000000	 80.708135 
944.000000	 80.739283 
943.000000	 80.768622 
942.000000	 80.792906 
941.000000	 80.812888 
940.000000	 80.833421 
939.000000	 80.856253 
938.000000	 80.877818 
937.000000	 80.895626 
936.000000	 80.912648 
935.000000	 80.933327 
934.000000	 80.958192 
933.000000	 80.984249 
932.000000	 81.008398 
931.000000	 81.029195 
930.000000	 81.047602 
929.000000	 81.067346 
928.000000	 81.092272 
927.000000	 81.121688 
926.000000	 81.150092 
925.000000	 81.173040 
924.000000	 81.191966 
923.000000	 81.211851 
922.000000	 81.234849 
921.000000	 81.257089 
920.000000	 81.271815 
919.000000	 81.276165 
918.000000	 81.275331 
917.000000	 81.278416 
916.000000	 81.288971 
915.000000	 81.301727 
914.000000	 81.310666 
913.000000	 81.317879 
912.000000	 81.330430 
911.000000	 81.350116 
910.000000	 81.372169 
909.000000	 81.394363 
908.000000	 81.421416 
907.000000	 81.458406 
906.000000	 81.504508 
905.000000	 81.555651 
904.000000	 81.609681 
903.000000	 81.666366 
902.000000	 81.725857 
901.000000	 81.790382 
900.000000	 81.864587 
899.000000	 81.950715 
898.000000	 82.044209 
897.000000	 82.136027 
896.000000	 82.218074 
895.000000	 82.286660 
894.000000	 82.344425 
893.000000	 82.400465 
892.000000	 82.465471 
891.000000	 82.544499 
890.000000	 82.635640 
889.000000	 82.735129 
888.000000	 82.839337 
887.000000	 82.941150 
886.000000	 83.030977 
885.000000	 83.105429 
884.000000	 83.170142 
883.000000	 83.229338 
882.000000	 83.276931 
881.000000	 83.305062 
880.000000	 83.319214 
879.000000	 83.336226 
878.000000	 83.364876 
877.000000	 83.396269 
876.000000	 83.418279 
875.000000	 83.431851 
874.000000	 83.445591 
873.000000	 83.459599 
872.000000	 83.466189 
871.000000	 83.467592 
870.000000	 83.481917 
869.000000	 83.524620 
868.000000	 83.589647 
867.000000	 83.655123 
866.000000	 83.706077 
865.000000	 83.746831 
864.000000	 83.791776 
863.000000	 83.849181 
862.000000	 83.914589 
861.000000	 83.975784 
860.000000	 84.022620 
859.000000	 84.054800 
858.000000	 84.081773 
857.000000	 84.113550 
856.000000	 84.151798 
855.000000	 84.191807 
854.000000	 84.230970 
853.000000	 84.270218 
852.000000	 84.307505 
851.000000	 84.336587 
850.000000	 84.355471 
849.000000	 84.371700 
848.000000	 84.395392 
847.000000	 84.428740 
846.000000	 84.464072 
845.000000	 84.490064 
844.000000	 84.499003 
843.000000	 84.491898 
842.000000	 84.479025 
841.000000	 84.472153 
840.000000	 84.472966 
839.000000	 84.470628 
838.000000	 84.453065 
837.000000	 84.420021 
836.000000	 84.384258 
835.000000	 84.360989 
834.000000	 84.355471 
833.000000	 84.358432 
832.000000	 84.353546 
831.000000	 84.332384 
830.000000	 84.303682 
829.000000	 84.286326 
828.000000	 84.292444 
827.000000	 84.318333 
826.000000	 84.349467 
825.000000	 84.369883 
824.000000	 84.368532 
823.000000	 84.345354 
822.000000	 84.314440 
821.000000	 84.293969 
820.000000	 84.288749 
819.000000	 84.286273 
818.000000	 84.271256 
817.000000	 84.240000 
816.000000	 84.199058 
815.000000	 84.154865 
814.000000	 84.108882 
813.000000	 84.059866 
812.000000	 84.004602 
811.000000	 83.934773 
810.000000	 83.836940 
809.000000	 83.699596 
808.000000	 83.522022 
807.000000	 83.316820 
806.000000	 83.103277 
805.000000	 82.896676 
804.000000	 82.702278 
803.000000	 82.517329 
802.000000	 82.338059 
801.000000	 82.167582 
800.000000	 82.019393 
799.000000	 81.911252 
798.000000	 81.852679 
797.000000	 81.838988 
796.000000	 81.858083 
795.000000	 81.899416 
794.000000	 81.954323 
793.000000	 82.013423 
792.000000	 82.070630 
791.000000	 82.127692 
790.000000	 82.187245 
789.000000	 82.240317 
788.000000	 82.267767 
787.000000	 82.257751 
786.000000	 82.217031 
785.000000	 82.161255 
784.000000	 82.098974 
783.000000	 82.030098 
782.000000	 81.955602 
781.000000	 81.882580 
780.000000	 81.821695 
779.000000	 81.784260 
778.000000	 81.779299 
777.000000	 81.808228 
776.000000	 81.863174 
775.000000	 81.934384 
774.000000	 82.018528 
773.000000	 82.115991 
772.000000	 82.221269 
771.000000	 82.321402 
770.000000	 82.405260 
769.000000	 82.471218 
768.000000	 82.525507 
767.000000	 82.576856 
766.000000	 82.632336 
765.000000	 82.693069 
764.000000	 82.752166 
763.000000	 82.799974 
762.000000	 82.832768 
761.000000	 82.854319 
760.000000	 82.870021 
759.000000	 82.883777 
758.000000	 82.899969 
757.000000	 82.922737 
756.000000	 82.951365 
755.000000	 82.979935 
754.000000	 83.003452 
753.000000	 83.022919 
752.000000	 83.045225 
751.000000	 83.080319 
750.000000	 83.135991 
749.000000	 83.209393 
748.000000	 83.283906 
747.000000	 83.340897 
746.000000	 83.376725 
745.000000	 83.404127 
744.000000	 83.436651 
743.000000	 83.477431 
742.000000	 83.524045 
741.000000	 83.576056 
740.000000	 83.632682 
739.000000	 83.688894 
738.000000	 83.739861 
737.000000	 83.786211 
736.000000	 83.830543 
735.000000	 83.870847 
734.000000	 83.901679 
733.000000	 83.921072 
732.000000	 83.933507 
731.000000	 83.947060 
730.000000	 83.969707 
729.000000	 84.006662 
728.000000	 84.054226 
727.000000	 84.098789 
726.000000	 84.130028 
725.000000	 84.151068 
724.000000	 84.171033 
723.000000	 84.192056 
722.000000	 84.210345 
721.000000	 84.227080 
720.000000	 84.249019 
719.000000	 84.277400 
718.000000	 84.304058 
717.000000	 84.320975 
716.000000	 84.329211 
715.000000	 84.335483 
714.000000	 84.342555 
713.000000	 84.346798 
712.000000	 84.343497 
711.000000	 84.331105 
710.000000	 84.312999 
709.000000	 84.296579 
708.000000	 84.286282 
707.000000	 84.280287 
706.000000	 84.273708 
705.000000	 84.261256 
704.000000	 84.236542 
703.000000	 84.195193 
702.000000	 84.137744 
701.000000	 84.068093 
700.000000	 83.990252 
699.000000	 83.902917 
698.000000	 83.802446 
697.000000	 83.692245 
696.000000	 83.589346 
695.000000	 83.523186 
694.000000	 83.517018 
693.000000	 83.569654 
692.000000	 83.657300 
691.000000	 83.749462 
690.000000	 83.828462 
689.000000	 83.892175 
688.000000	 83.943808 
687.000000	 83.987340 
686.000000	 84.025363 
685.000000	 84.058591 
684.000000	 84.088938 
683.000000	 84.120461 
682.000000	 84.156996 
681.000000	 84.198434 
680.000000	 84.240982 
679.000000	 84.279689 
678.000000	 84.310316 
677.000000	 84.335495 
676.000000	 84.361154 
675.000000	 84.389875 
674.000000	 84.418467 
673.000000	 84.438487 
672.000000	 84.436290 
671.000000	 84.399645 
670.000000	 84.326090 
669.000000	 84.247495 
668.000000	 84.253641 
667.000000	 84.372497 
666.000000	 84.503689 
665.000000	 84.603504 
664.000000	 84.687363 
663.000000	 84.758924 
662.000000	 84.813371 
661.000000	 84.856864 
660.000000	 84.899299 
659.000000	 84.939904 
658.000000	 84.974699 
657.000000	 85.009524 
656.000000	 85.043733 
655.000000	 85.062041 
654.000000	 85.060992 
653.000000	 85.060007 
652.000000	 85.070143 
651.000000	 85.080310 
650.000000	 85.085494 

