PE IR                   SPECTRUM    ASCII       PEDS        1.60        
  -1
~SP.SP
22/12/06
15:40:16.00
23/01/09
15:04:30.00
Administrator

650.000000
4









FRONTIER FT-IR,CPU32 MAIN 00.09.9951 07-SEPTEMBER-2011 11:49:41
MIR TGS
MIR
OPTKBR
90694
0.200000

4.000000
STRONG
RATIO
SPECTRUM
MAGNITUDE
MIRACLE ATR
DOUBLE

COMBINED


0


#HDR
-1
-1
#GR
CM-1
%T
0.00002384185791015625
0.0
4000.000000
-1.000000
3351
8
87.480867
75.055001
#DATA
4000.000000	87.466855 
3999.000000	87.467394 
3998.000000	87.467068 
3997.000000	87.465716 
3996.000000	87.463938 
3995.000000	87.462685 
3994.000000	87.462557 
3993.000000	87.463557 
3992.000000	87.465099 
3991.000000	87.466553 
3990.000000	87.467713 
3989.000000	87.468657 
3988.000000	87.469401 
3987.000000	87.469778 
3986.000000	87.469621 
3985.000000	87.468918 
3984.000000	87.467782 
3983.000000	87.466355 
3982.000000	87.464814 
3981.000000	87.463502 
3980.000000	87.462862 
3979.000000	87.463062 
3978.000000	87.463635 
3977.000000	87.463679 
3976.000000	87.462729 
3975.000000	87.461325 
3974.000000	87.460606 
3973.000000	87.461174 
3972.000000	87.462534 
3971.000000	87.463577 
3970.000000	87.463483 
3969.000000	87.462248 
3968.000000	87.460457 
3967.000000	87.458783 
3966.000000	87.457632 
3965.000000	87.457080 
3964.000000	87.457015 
3963.000000	87.457205 
3962.000000	87.457306 
3961.000000	87.457046 
3960.000000	87.456522 
3959.000000	87.456253 
3958.000000	87.456735 
3957.000000	87.457940 
3956.000000	87.459247 
3955.000000	87.459946 
3954.000000	87.459826 
3953.000000	87.459182 
3952.000000	87.458416 
3951.000000	87.457691 
3950.000000	87.456935 
3949.000000	87.456042 
3948.000000	87.455004 
3947.000000	87.453912 
3946.000000	87.452913 
3945.000000	87.452139 
3944.000000	87.451614 
3943.000000	87.451236 
3942.000000	87.450823 
3941.000000	87.450219 
3940.000000	87.449383 
3939.000000	87.448359 
3938.000000	87.447224 
3937.000000	87.446081 
3936.000000	87.445068 
3935.000000	87.444316 
3934.000000	87.443854 
3933.000000	87.443520 
3932.000000	87.443019 
3931.000000	87.442171 
3930.000000	87.441038 
3929.000000	87.439908 
3928.000000	87.439045 
3927.000000	87.438494 
3926.000000	87.438063 
3925.000000	87.437462 
3924.000000	87.436515 
3923.000000	87.435244 
3922.000000	87.433818 
3921.000000	87.432447 
3920.000000	87.431258 
3919.000000	87.430237 
3918.000000	87.429314 
3917.000000	87.428488 
3916.000000	87.427791 
3915.000000	87.427162 
3914.000000	87.426453 
3913.000000	87.425532 
3912.000000	87.424302 
3911.000000	87.422671 
3910.000000	87.420717 
3909.000000	87.418933 
3908.000000	87.418098 
3907.000000	87.418769 
3906.000000	87.420673 
3905.000000	87.422509 
3904.000000	87.422817 
3903.000000	87.421117 
3902.000000	87.417934 
3901.000000	87.414091 
3900.000000	87.410233 
3899.000000	87.406879 
3898.000000	87.404485 
3897.000000	87.403396 
3896.000000	87.403679 
3895.000000	87.405250 
3894.000000	87.407844 
3893.000000	87.410732 
3892.000000	87.412932 
3891.000000	87.413790 
3890.000000	87.413327 
3889.000000	87.411947 
3888.000000	87.410370 
3887.000000	87.409306 
3886.000000	87.408736 
3885.000000	87.408247 
3884.000000	87.407667 
3883.000000	87.406970 
3882.000000	87.406317 
3881.000000	87.405933 
3880.000000	87.405754 
3879.000000	87.405683 
3878.000000	87.405666 
3877.000000	87.405685 
3876.000000	87.405671 
3875.000000	87.405249 
3874.000000	87.404346 
3873.000000	87.403639 
3872.000000	87.403812 
3871.000000	87.405132 
3870.000000	87.407500 
3869.000000	87.410200 
3868.000000	87.411834 
3867.000000	87.411423 
3866.000000	87.409775 
3865.000000	87.408754 
3864.000000	87.409246 
3863.000000	87.410536 
3862.000000	87.411249 
3861.000000	87.410764 
3860.000000	87.409795 
3859.000000	87.409658 
3858.000000	87.411400 
3857.000000	87.415346 
3856.000000	87.420512 
3855.000000	87.424084 
3854.000000	87.423366 
3853.000000	87.419336 
3852.000000	87.416193 
3851.000000	87.414723 
3850.000000	87.413043 
3849.000000	87.410979 
3848.000000	87.408816 
3847.000000	87.406420 
3846.000000	87.404174 
3845.000000	87.402774 
3844.000000	87.402409 
3843.000000	87.402568 
3842.000000	87.402809 
3841.000000	87.403159 
3840.000000	87.403624 
3839.000000	87.403579 
3838.000000	87.402350 
3837.000000	87.400411 
3836.000000	87.399212 
3835.000000	87.399798 
3834.000000	87.401946 
3833.000000	87.404104 
3832.000000	87.404289 
3831.000000	87.401709 
3830.000000	87.397455 
3829.000000	87.393757 
3828.000000	87.392471 
3827.000000	87.393873 
3826.000000	87.396574 
3825.000000	87.398683 
3824.000000	87.399221 
3823.000000	87.398849 
3822.000000	87.399258 
3821.000000	87.401730 
3820.000000	87.405959 
3819.000000	87.408835 
3818.000000	87.407375 
3817.000000	87.403450 
3816.000000	87.400910 
3815.000000	87.400675 
3814.000000	87.399841 
3813.000000	87.394791 
3812.000000	87.385937 
3811.000000	87.376821 
3810.000000	87.369679 
3809.000000	87.364568 
3808.000000	87.361117 
3807.000000	87.359940 
3806.000000	87.362396 
3805.000000	87.368187 
3804.000000	87.375373 
3803.000000	87.382730 
3802.000000	87.389326 
3801.000000	87.395100 
3800.000000	87.400804 
3799.000000	87.404078 
3798.000000	87.403041 
3797.000000	87.399930 
3796.000000	87.396373 
3795.000000	87.391679 
3794.000000	87.384861 
3793.000000	87.376417 
3792.000000	87.368695 
3791.000000	87.363719 
3790.000000	87.361284 
3789.000000	87.359147 
3788.000000	87.354798 
3787.000000	87.347821 
3786.000000	87.340983 
3785.000000	87.338226 
3784.000000	87.340709 
3783.000000	87.345401 
3782.000000	87.348235 
3781.000000	87.348158 
3780.000000	87.347339 
3779.000000	87.348012 
3778.000000	87.350015 
3777.000000	87.351241 
3776.000000	87.350876 
3775.000000	87.350855 
3774.000000	87.353254 
3773.000000	87.358049 
3772.000000	87.363472 
3771.000000	87.367367 
3770.000000	87.368350 
3769.000000	87.366301 
3768.000000	87.361683 
3767.000000	87.355412 
3766.000000	87.349485 
3765.000000	87.345872 
3764.000000	87.345065 
3763.000000	87.346369 
3762.000000	87.348818 
3761.000000	87.351243 
3760.000000	87.352058 
3759.000000	87.351064 
3758.000000	87.350868 
3757.000000	87.354092 
3756.000000	87.360748 
3755.000000	87.368918 
3754.000000	87.376690 
3753.000000	87.383157 
3752.000000	87.387757 
3751.000000	87.390325 
3750.000000	87.391541 
3749.000000	87.390576 
3748.000000	87.384985 
3747.000000	87.375143 
3746.000000	87.363895 
3745.000000	87.352994 
3744.000000	87.343823 
3743.000000	87.336453 
3742.000000	87.327104 
3741.000000	87.315831 
3740.000000	87.309342 
3739.000000	87.311074 
3738.000000	87.317538 
3737.000000	87.322546 
3736.000000	87.323711 
3735.000000	87.324711 
3734.000000	87.329281 
3733.000000	87.335652 
3732.000000	87.339354 
3731.000000	87.338031 
3730.000000	87.331129 
3729.000000	87.319184 
3728.000000	87.304527 
3727.000000	87.290603 
3726.000000	87.280193 
3725.000000	87.273645 
3724.000000	87.268253 
3723.000000	87.260657 
3722.000000	87.250273 
3721.000000	87.240030 
3720.000000	87.233536 
3719.000000	87.231260 
3718.000000	87.230040 
3717.000000	87.226286 
3716.000000	87.219385 
3715.000000	87.211505 
3714.000000	87.204685 
3713.000000	87.198560 
3712.000000	87.191710 
3711.000000	87.185002 
3710.000000	87.179995 
3709.000000	87.174831 
3708.000000	87.166584 
3707.000000	87.155397 
3706.000000	87.143585 
3705.000000	87.132934 
3704.000000	87.123661 
3703.000000	87.114919 
3702.000000	87.106154 
3701.000000	87.098159 
3700.000000	87.092057 
3699.000000	87.087627 
3698.000000	87.083462 
3697.000000	87.077887 
3696.000000	87.069881 
3695.000000	87.060093 
3694.000000	87.050668 
3693.000000	87.043708 
3692.000000	87.039497 
3691.000000	87.036356 
3690.000000	87.032675 
3689.000000	87.028662 
3688.000000	87.024732 
3687.000000	87.018864 
3686.000000	87.009030 
3685.000000	86.996757 
3684.000000	86.985447 
3683.000000	86.977337 
3682.000000	86.972476 
3681.000000	86.968994 
3680.000000	86.964424 
3679.000000	86.957199 
3678.000000	86.947086 
3677.000000	86.935681 
3676.000000	86.926650 
3675.000000	86.923689 
3674.000000	86.925148 
3673.000000	86.923481 
3672.000000	86.915543 
3671.000000	86.903824 
3670.000000	86.889481 
3669.000000	86.873963 
3668.000000	86.858254 
3667.000000	86.840798 
3666.000000	86.822338 
3665.000000	86.806012 
3664.000000	86.793743 
3663.000000	86.785857 
3662.000000	86.781182 
3661.000000	86.777327 
3660.000000	86.772162 
3659.000000	86.765006 
3658.000000	86.756485 
3657.000000	86.748065 
3656.000000	86.741801 
3655.000000	86.739205 
3654.000000	86.739522 
3653.000000	86.740617 
3652.000000	86.740126 
3651.000000	86.735337 
3650.000000	86.727014 
3649.000000	86.722234 
3648.000000	86.724784 
3647.000000	86.726986 
3646.000000	86.720670 
3645.000000	86.708301 
3644.000000	86.697776 
3643.000000	86.692790 
3642.000000	86.690130 
3641.000000	86.683997 
3640.000000	86.672075 
3639.000000	86.657600 
3638.000000	86.646414 
3637.000000	86.642317 
3636.000000	86.644823 
3635.000000	86.650254 
3634.000000	86.654782 
3633.000000	86.657207 
3632.000000	86.658975 
3631.000000	86.661584 
3630.000000	86.663601 
3629.000000	86.662021 
3628.000000	86.658371 
3627.000000	86.655513 
3626.000000	86.651610 
3625.000000	86.645327 
3624.000000	86.636978 
3623.000000	86.627095 
3622.000000	86.619309 
3621.000000	86.618748 
3620.000000	86.626845 
3619.000000	86.639469 
3618.000000	86.650865 
3617.000000	86.658200 
3616.000000	86.662636 
3615.000000	86.667392 
3614.000000	86.674132 
3613.000000	86.681848 
3612.000000	86.688418 
3611.000000	86.692254 
3610.000000	86.693724 
3609.000000	86.695248 
3608.000000	86.699231 
3607.000000	86.705732 
3606.000000	86.712276 
3605.000000	86.716591 
3604.000000	86.719292 
3603.000000	86.722733 
3602.000000	86.728373 
3601.000000	86.736221 
3600.000000	86.745855 
3599.000000	86.756921 
3598.000000	86.768532 
3597.000000	86.778857 
3596.000000	86.785611 
3595.000000	86.787469 
3594.000000	86.785292 
3593.000000	86.781782 
3592.000000	86.780162 
3591.000000	86.783404 
3590.000000	86.792690 
3589.000000	86.805202 
3588.000000	86.814843 
3587.000000	86.817591 
3586.000000	86.814644 
3585.000000	86.809344 
3584.000000	86.804157 
3583.000000	86.800165 
3582.000000	86.797126 
3581.000000	86.794716 
3580.000000	86.793356 
3579.000000	86.793610 
3578.000000	86.795665 
3577.000000	86.799572 
3576.000000	86.805401 
3575.000000	86.812742 
3574.000000	86.820129 
3573.000000	86.825516 
3572.000000	86.827711 
3571.000000	86.827272 
3570.000000	86.825823 
3569.000000	86.824402 
3568.000000	86.822858 
3567.000000	86.821257 
3566.000000	86.820983 
3565.000000	86.823135 
3564.000000	86.827275 
3563.000000	86.832185 
3562.000000	86.836307 
3561.000000	86.838285 
3560.000000	86.837940 
3559.000000	86.836251 
3558.000000	86.834551 
3557.000000	86.833844 
3556.000000	86.834670 
3555.000000	86.837131 
3554.000000	86.840701 
3553.000000	86.844103 
3552.000000	86.845867 
3551.000000	86.845377 
3550.000000	86.843370 
3549.000000	86.841243 
3548.000000	86.839653 
3547.000000	86.838096 
3546.000000	86.836225 
3545.000000	86.835125 
3544.000000	86.836343 
3543.000000	86.840004 
3542.000000	86.844574 
3541.000000	86.848271 
3540.000000	86.850447 
3539.000000	86.851651 
3538.000000	86.852821 
3537.000000	86.854676 
3536.000000	86.857574 
3535.000000	86.861424 
3534.000000	86.865571 
3533.000000	86.869096 
3532.000000	86.871452 
3531.000000	86.872809 
3530.000000	86.873748 
3529.000000	86.874599 
3528.000000	86.875013 
3527.000000	86.874267 
3526.000000	86.872105 
3525.000000	86.869425 
3524.000000	86.867960 
3523.000000	86.868883 
3522.000000	86.871774 
3521.000000	86.875118 
3520.000000	86.878015 
3519.000000	86.880957 
3518.000000	86.884678 
3517.000000	86.888640 
3516.000000	86.891190 
3515.000000	86.891271 
3514.000000	86.889603 
3513.000000	86.888202 
3512.000000	86.888855 
3511.000000	86.892096 
3510.000000	86.897160 
3509.000000	86.902407 
3508.000000	86.906271 
3507.000000	86.908434 
3506.000000	86.910036 
3505.000000	86.912538 
3504.000000	86.916224 
3503.000000	86.920064 
3502.000000	86.923108 
3501.000000	86.925590 
3500.000000	86.928379 
3499.000000	86.931601 
3498.000000	86.934219 
3497.000000	86.935159 
3496.000000	86.934476 
3495.000000	86.933254 
3494.000000	86.932627 
3493.000000	86.933069 
3492.000000	86.934542 
3491.000000	86.936875 
3490.000000	86.939792 
3489.000000	86.942780 
3488.000000	86.945245 
3487.000000	86.946966 
3486.000000	86.948310 
3485.000000	86.949889 
3484.000000	86.951932 
3483.000000	86.954078 
3482.000000	86.955854 
3481.000000	86.957294 
3480.000000	86.958884 
3479.000000	86.960874 
3478.000000	86.962809 
3477.000000	86.963949 
3476.000000	86.964119 
3475.000000	86.964108 
3474.000000	86.965021 
3473.000000	86.967229 
3472.000000	86.970144 
3471.000000	86.972787 
3470.000000	86.974650 
3469.000000	86.975859 
3468.000000	86.976867 
3467.000000	86.978191 
3466.000000	86.980205 
3465.000000	86.982940 
3464.000000	86.985934 
3463.000000	86.988444 
3462.000000	86.989978 
3461.000000	86.990595 
3460.000000	86.990763 
3459.000000	86.990946 
3458.000000	86.991376 
3457.000000	86.992194 
3456.000000	86.993607 
3455.000000	86.995765 
3454.000000	86.998473 
3453.000000	87.001239 
3452.000000	87.003760 
3451.000000	87.006253 
3450.000000	87.009040 
3449.000000	87.011974 
3448.000000	87.014603 
3447.000000	87.016892 
3446.000000	87.019272 
3445.000000	87.021744 
3444.000000	87.023580 
3443.000000	87.024366 
3442.000000	87.024855 
3441.000000	87.026195 
3440.000000	87.028393 
3439.000000	87.030242 
3438.000000	87.030925 
3437.000000	87.031152 
3436.000000	87.032290 
3435.000000	87.034585 
3434.000000	87.036740 
3433.000000	87.037289 
3432.000000	87.036112 
3431.000000	87.034594 
3430.000000	87.034423 
3429.000000	87.036196 
3428.000000	87.039250 
3427.000000	87.042392 
3426.000000	87.044879 
3425.000000	87.046730 
3424.000000	87.048348 
3423.000000	87.050076 
3422.000000	87.051996 
3421.000000	87.053992 
3420.000000	87.056045 
3419.000000	87.058486 
3418.000000	87.061670 
3417.000000	87.065180 
3416.000000	87.067740 
3415.000000	87.068505 
3414.000000	87.068224 
3413.000000	87.068540 
3412.000000	87.069889 
3411.000000	87.070908 
3410.000000	87.070333 
3409.000000	87.068723 
3408.000000	87.067789 
3407.000000	87.068324 
3406.000000	87.069736 
3405.000000	87.071413 
3404.000000	87.073469 
3403.000000	87.075774 
3402.000000	87.077172 
3401.000000	87.076597 
3400.000000	87.074726 
3399.000000	87.073771 
3398.000000	87.075322 
3397.000000	87.078863 
3396.000000	87.082347 
3395.000000	87.084053 
3394.000000	87.083749 
3393.000000	87.082497 
3392.000000	87.081815 
3391.000000	87.082726 
3390.000000	87.085183 
3389.000000	87.088148 
3388.000000	87.090595 
3387.000000	87.092644 
3386.000000	87.095392 
3385.000000	87.099513 
3384.000000	87.104241 
3383.000000	87.107994 
3382.000000	87.109907 
3381.000000	87.110352 
3380.000000	87.110094 
3379.000000	87.109487 
3378.000000	87.108662 
3377.000000	87.108043 
3376.000000	87.108201 
3375.000000	87.109327 
3374.000000	87.111175 
3373.000000	87.113367 
3372.000000	87.115473 
3371.000000	87.116909 
3370.000000	87.117199 
3369.000000	87.116489 
3368.000000	87.115497 
3367.000000	87.114760 
3366.000000	87.114119 
3365.000000	87.113148 
3364.000000	87.112021 
3363.000000	87.111605 
3362.000000	87.112556 
3361.000000	87.114444 
3360.000000	87.115931 
3359.000000	87.116008 
3358.000000	87.114959 
3357.000000	87.113926 
3356.000000	87.113529 
3355.000000	87.113207 
3354.000000	87.112017 
3353.000000	87.109821 
3352.000000	87.107522 
3351.000000	87.106255 
3350.000000	87.106465 
3349.000000	87.107783 
3348.000000	87.109326 
3347.000000	87.110157 
3346.000000	87.109818 
3345.000000	87.108599 
3344.000000	87.107327 
3343.000000	87.106637 
3342.000000	87.106427 
3341.000000	87.106133 
3340.000000	87.105390 
3339.000000	87.104258 
3338.000000	87.102926 
3337.000000	87.101511 
3336.000000	87.100218 
3335.000000	87.099413 
3334.000000	87.099260 
3333.000000	87.099333 
3332.000000	87.098833 
3331.000000	87.097353 
3330.000000	87.095191 
3329.000000	87.092980 
3328.000000	87.091067 
3327.000000	87.089468 
3326.000000	87.088224 
3325.000000	87.087465 
3324.000000	87.087090 
3323.000000	87.086541 
3322.000000	87.085187 
3321.000000	87.082905 
3320.000000	87.080121 
3319.000000	87.077330 
3318.000000	87.074688 
3317.000000	87.072172 
3316.000000	87.069859 
3315.000000	87.067860 
3314.000000	87.066081 
3313.000000	87.064250 
3312.000000	87.062264 
3311.000000	87.060344 
3310.000000	87.058704 
3309.000000	87.057169 
3308.000000	87.055267 
3307.000000	87.052714 
3306.000000	87.049667 
3305.000000	87.046531 
3304.000000	87.043657 
3303.000000	87.041262 
3302.000000	87.039407 
3301.000000	87.037932 
3300.000000	87.036408 
3299.000000	87.034374 
3298.000000	87.031657 
3297.000000	87.028427 
3296.000000	87.025051 
3295.000000	87.021855 
3294.000000	87.018954 
3293.000000	87.016248 
3292.000000	87.013620 
3291.000000	87.011141 
3290.000000	87.008928 
3289.000000	87.006783 
3288.000000	87.004189 
3287.000000	87.000855 
3286.000000	86.997178 
3285.000000	86.994004 
3284.000000	86.991795 
3283.000000	86.990313 
3282.000000	86.988997 
3281.000000	86.987453 
3280.000000	86.985420 
3279.000000	86.982633 
3278.000000	86.979044 
3277.000000	86.975099 
3276.000000	86.971452 
3275.000000	86.968365 
3274.000000	86.965658 
3273.000000	86.963146 
3272.000000	86.960841 
3271.000000	86.958721 
3270.000000	86.956673 
3269.000000	86.954768 
3268.000000	86.953299 
3267.000000	86.952361 
3266.000000	86.951538 
3265.000000	86.950183 
3264.000000	86.947964 
3263.000000	86.945116 
3262.000000	86.942174 
3261.000000	86.939500 
3260.000000	86.937081 
3259.000000	86.934764 
3258.000000	86.932561 
3257.000000	86.930613 
3256.000000	86.928859 
3255.000000	86.926958 
3254.000000	86.924694 
3253.000000	86.922322 
3252.000000	86.920325 
3251.000000	86.918832 
3250.000000	86.917456 
3249.000000	86.915740 
3248.000000	86.913615 
3247.000000	86.911298 
3246.000000	86.908942 
3245.000000	86.906558 
3244.000000	86.904184 
3243.000000	86.901862 
3242.000000	86.899460 
3241.000000	86.896754 
3240.000000	86.893761 
3239.000000	86.890902 
3238.000000	86.888616 
3237.000000	86.886925 
3236.000000	86.885406 
3235.000000	86.883574 
3234.000000	86.881310 
3233.000000	86.878779 
3232.000000	86.876181 
3231.000000	86.873603 
3230.000000	86.871116 
3229.000000	86.868863 
3228.000000	86.866956 
3227.000000	86.865325 
3226.000000	86.863687 
3225.000000	86.861721 
3224.000000	86.859308 
3223.000000	86.856657 
3222.000000	86.854227 
3221.000000	86.852420 
3220.000000	86.851229 
3219.000000	86.850083 
3218.000000	86.848241 
3217.000000	86.845484 
3216.000000	86.842398 
3215.000000	86.839855 
3214.000000	86.838075 
3213.000000	86.836427 
3212.000000	86.834152 
3211.000000	86.831147 
3210.000000	86.827909 
3209.000000	86.824878 
3208.000000	86.822045 
3207.000000	86.819165 
3206.000000	86.816106 
3205.000000	86.812909 
3204.000000	86.809729 
3203.000000	86.806844 
3202.000000	86.804541 
3201.000000	86.802851 
3200.000000	86.801485 
3199.000000	86.800151 
3198.000000	86.798818 
3197.000000	86.797585 
3196.000000	86.796437 
3195.000000	86.795290 
3194.000000	86.794174 
3193.000000	86.793135 
3192.000000	86.791935 
3191.000000	86.790102 
3190.000000	86.787424 
3189.000000	86.784263 
3188.000000	86.781354 
3187.000000	86.779252 
3186.000000	86.777962 
3185.000000	86.776961 
3184.000000	86.775520 
3183.000000	86.773206 
3182.000000	86.770172 
3181.000000	86.767097 
3180.000000	86.764670 
3179.000000	86.763081 
3178.000000	86.762047 
3177.000000	86.761170 
3176.000000	86.760276 
3175.000000	86.759262 
3174.000000	86.757908 
3173.000000	86.756062 
3172.000000	86.753878 
3171.000000	86.751718 
3170.000000	86.749747 
3169.000000	86.747873 
3168.000000	86.746074 
3167.000000	86.744574 
3166.000000	86.743539 
3165.000000	86.742786 
3164.000000	86.741913 
3163.000000	86.740707 
3162.000000	86.739278 
3161.000000	86.737853 
3160.000000	86.736558 
3159.000000	86.735368 
3158.000000	86.734177 
3157.000000	86.732880 
3156.000000	86.731445 
3155.000000	86.729980 
3154.000000	86.728686 
3153.000000	86.727664 
3152.000000	86.726810 
3151.000000	86.725924 
3150.000000	86.724949 
3149.000000	86.724012 
3148.000000	86.723237 
3147.000000	86.722603 
3146.000000	86.722002 
3145.000000	86.721359 
3144.000000	86.720624 
3143.000000	86.719710 
3142.000000	86.718538 
3141.000000	86.717195 
3140.000000	86.716019 
3139.000000	86.715353 
3138.000000	86.715234 
3137.000000	86.715369 
3136.000000	86.715341 
3135.000000	86.714958 
3134.000000	86.714326 
3133.000000	86.713712 
3132.000000	86.713332 
3131.000000	86.713191 
3130.000000	86.713142 
3129.000000	86.713056 
3128.000000	86.712940 
3127.000000	86.712865 
3126.000000	86.712818 
3125.000000	86.712700 
3124.000000	86.712479 
3123.000000	86.712251 
3122.000000	86.712121 
3121.000000	86.712050 
3120.000000	86.711911 
3119.000000	86.711679 
3118.000000	86.711492 
3117.000000	86.711507 
3116.000000	86.711744 
3115.000000	86.712071 
3114.000000	86.712314 
3113.000000	86.712367 
3112.000000	86.712236 
3111.000000	86.712034 
3110.000000	86.711956 
3109.000000	86.712184 
3108.000000	86.712791 
3107.000000	86.713682 
3106.000000	86.714584 
3105.000000	86.715210 
3104.000000	86.715440 
3103.000000	86.715327 
3102.000000	86.715056 
3101.000000	86.714869 
3100.000000	86.714980 
3099.000000	86.715439 
3098.000000	86.716044 
3097.000000	86.716503 
3096.000000	86.716738 
3095.000000	86.716931 
3094.000000	86.717199 
3093.000000	86.717362 
3092.000000	86.717215 
3091.000000	86.716948 
3090.000000	86.717040 
3089.000000	86.717693 
3088.000000	86.718624 
3087.000000	86.719426 
3086.000000	86.720033 
3085.000000	86.720663 
3084.000000	86.721479 
3083.000000	86.722414 
3082.000000	86.723242 
3081.000000	86.723764 
3080.000000	86.723981 
3079.000000	86.724153 
3078.000000	86.724606 
3077.000000	86.725430 
3076.000000	86.726388 
3075.000000	86.727131 
3074.000000	86.727488 
3073.000000	86.727577 
3072.000000	86.727759 
3071.000000	86.728436 
3070.000000	86.729738 
3069.000000	86.731268 
3068.000000	86.732311 
3067.000000	86.732496 
3066.000000	86.732179 
3065.000000	86.732150 
3064.000000	86.733070 
3063.000000	86.735189 
3062.000000	86.737974 
3061.000000	86.739885 
3060.000000	86.739400 
3059.000000	86.736653 
3058.000000	86.733694 
3057.000000	86.732227 
3056.000000	86.731645 
3055.000000	86.730449 
3054.000000	86.728969 
3053.000000	86.729089 
3052.000000	86.731275 
3051.000000	86.733468 
3050.000000	86.733713 
3049.000000	86.732681 
3048.000000	86.732460 
3047.000000	86.733607 
3046.000000	86.734710 
3045.000000	86.734486 
3044.000000	86.733067 
3043.000000	86.731229 
3042.000000	86.729384 
3041.000000	86.727564 
3040.000000	86.725595 
3039.000000	86.723040 
3038.000000	86.719811 
3037.000000	86.717272 
3036.000000	86.717826 
3035.000000	86.722457 
3034.000000	86.728963 
3033.000000	86.733622 
3032.000000	86.734857 
3031.000000	86.734561 
3030.000000	86.735166 
3029.000000	86.735947 
3028.000000	86.733497 
3027.000000	86.725835 
3026.000000	86.715025 
3025.000000	86.705136 
3024.000000	86.698107 
3023.000000	86.692533 
3022.000000	86.686279 
3021.000000	86.679212 
3020.000000	86.673122 
3019.000000	86.669751 
3018.000000	86.669228 
3017.000000	86.669715 
3016.000000	86.668159 
3015.000000	86.662270 
3014.000000	86.652921 
3013.000000	86.644330 
3012.000000	86.640613 
3011.000000	86.641752 
3010.000000	86.643606 
3009.000000	86.642211 
3008.000000	86.637349 
3007.000000	86.631455 
3006.000000	86.626190 
3005.000000	86.621465 
3004.000000	86.617157 
3003.000000	86.613656 
3002.000000	86.610348 
3001.000000	86.605598 
3000.000000	86.599654 
2999.000000	86.596073 
2998.000000	86.598253 
2997.000000	86.605195 
2996.000000	86.612439 
2995.000000	86.616705 
2994.000000	86.617677 
2993.000000	86.615768 
2992.000000	86.611346 
2991.000000	86.607316 
2990.000000	86.609878 
2989.000000	86.624335 
2988.000000	86.650875 
2987.000000	86.685451 
2986.000000	86.723378 
2985.000000	86.760696 
2984.000000	86.793802 
2983.000000	86.820891 
2982.000000	86.843927 
2981.000000	86.867075 
2980.000000	86.892369 
2979.000000	86.917702 
2978.000000	86.939013 
2977.000000	86.953382 
2976.000000	86.960512 
2975.000000	86.962843 
2974.000000	86.963921 
2973.000000	86.964507 
2972.000000	86.959983 
2971.000000	86.943856 
2970.000000	86.914954 
2969.000000	86.879957 
2968.000000	86.847905 
2967.000000	86.823219 
2966.000000	86.804957 
2965.000000	86.790636 
2964.000000	86.778175 
2963.000000	86.765031 
2962.000000	86.748506 
2961.000000	86.728173 
2960.000000	86.706866 
2959.000000	86.688666 
2958.000000	86.676697 
2957.000000	86.672983 
2956.000000	86.678715 
2955.000000	86.692933 
2954.000000	86.711128 
2953.000000	86.726829 
2952.000000	86.735816 
2951.000000	86.738758 
2950.000000	86.739217 
2949.000000	86.739391 
2948.000000	86.738578 
2947.000000	86.735824 
2946.000000	86.732920 
2945.000000	86.733607 
2944.000000	86.739948 
2943.000000	86.750490 
2942.000000	86.762112 
2941.000000	86.772924 
2940.000000	86.783084 
2939.000000	86.793668 
2938.000000	86.805393 
2937.000000	86.817911 
2936.000000	86.829768 
2935.000000	86.839494 
2934.000000	86.847196 
2933.000000	86.854400 
2932.000000	86.861508 
2931.000000	86.866097 
2930.000000	86.865023 
2929.000000	86.857959 
2928.000000	86.847697 
2927.000000	86.837021 
2926.000000	86.826752 
2925.000000	86.817291 
2924.000000	86.810117 
2923.000000	86.806053 
2922.000000	86.803192 
2921.000000	86.798654 
2920.000000	86.792235 
2919.000000	86.786630 
2918.000000	86.783731 
2917.000000	86.782084 
2916.000000	86.778455 
2915.000000	86.770814 
2914.000000	86.759524 
2913.000000	86.747092 
2912.000000	86.737544 
2911.000000	86.734374 
2910.000000	86.737085 
2909.000000	86.740099 
2908.000000	86.737371 
2907.000000	86.728809 
2906.000000	86.720502 
2905.000000	86.717945 
2904.000000	86.720794 
2903.000000	86.725197 
2902.000000	86.729699 
2901.000000	86.736526 
2900.000000	86.747060 
2899.000000	86.758304 
2898.000000	86.765130 
2897.000000	86.765393 
2896.000000	86.761849 
2895.000000	86.759317 
2894.000000	86.760385 
2893.000000	86.763704 
2892.000000	86.766032 
2891.000000	86.765700 
2890.000000	86.763946 
2889.000000	86.762970 
2888.000000	86.763336 
2887.000000	86.763884 
2886.000000	86.763884 
2885.000000	86.764263 
2884.000000	86.766406 
2883.000000	86.770594 
2882.000000	86.776198 
2881.000000	86.782743 
2880.000000	86.789998 
2879.000000	86.797374 
2878.000000	86.804031 
2877.000000	86.809332 
2876.000000	86.812405 
2875.000000	86.811645 
2874.000000	86.805976 
2873.000000	86.797025 
2872.000000	86.789155 
2871.000000	86.786154 
2870.000000	86.788263 
2869.000000	86.792710 
2868.000000	86.796465 
2867.000000	86.798458 
2866.000000	86.799699 
2865.000000	86.801956 
2864.000000	86.806106 
2863.000000	86.811239 
2862.000000	86.815454 
2861.000000	86.817794 
2860.000000	86.818980 
2859.000000	86.819959 
2858.000000	86.820482 
2857.000000	86.819939 
2856.000000	86.818876 
2855.000000	86.818309 
2854.000000	86.817925 
2853.000000	86.816571 
2852.000000	86.814556 
2851.000000	86.813774 
2850.000000	86.814914 
2849.000000	86.816107 
2848.000000	86.815419 
2847.000000	86.813459 
2846.000000	86.812203 
2845.000000	86.812082 
2844.000000	86.811766 
2843.000000	86.810502 
2842.000000	86.809079 
2841.000000	86.808287 
2840.000000	86.807651 
2839.000000	86.806331 
2838.000000	86.804454 
2837.000000	86.802877 
2836.000000	86.802038 
2835.000000	86.801662 
2834.000000	86.801328 
2833.000000	86.800818 
2832.000000	86.799991 
2831.000000	86.798759 
2830.000000	86.797349 
2829.000000	86.796399 
2828.000000	86.796532 
2827.000000	86.797678 
2826.000000	86.798998 
2825.000000	86.799533 
2824.000000	86.798913 
2823.000000	86.797447 
2822.000000	86.795678 
2821.000000	86.794067 
2820.000000	86.792954 
2819.000000	86.792453 
2818.000000	86.792251 
2817.000000	86.791843 
2816.000000	86.791201 
2815.000000	86.790936 
2814.000000	86.791565 
2813.000000	86.792821 
2812.000000	86.793846 
2811.000000	86.794018 
2810.000000	86.793381 
2809.000000	86.792332 
2808.000000	86.791168 
2807.000000	86.789898 
2806.000000	86.788340 
2805.000000	86.786396 
2804.000000	86.784355 
2803.000000	86.782866 
2802.000000	86.782401 
2801.000000	86.782831 
2800.000000	86.783728 
2799.000000	86.784955 
2798.000000	86.786601 
2797.000000	86.788354 
2796.000000	86.789396 
2795.000000	86.789081 
2794.000000	86.787510 
2793.000000	86.785431 
2792.000000	86.783775 
2791.000000	86.783210 
2790.000000	86.783880 
2789.000000	86.785308 
2788.000000	86.786648 
2787.000000	86.787384 
2786.000000	86.787686 
2785.000000	86.787991 
2784.000000	86.788304 
2783.000000	86.788137 
2782.000000	86.787143 
2781.000000	86.785687 
2780.000000	86.784689 
2779.000000	86.784843 
2778.000000	86.785968 
2777.000000	86.787083 
2776.000000	86.787225 
2775.000000	86.786163 
2774.000000	86.784354 
2773.000000	86.782438 
2772.000000	86.780848 
2771.000000	86.779742 
2770.000000	86.778997 
2769.000000	86.778349 
2768.000000	86.777832 
2767.000000	86.777977 
2766.000000	86.779191 
2765.000000	86.780994 
2764.000000	86.782250 
2763.000000	86.782349 
2762.000000	86.781801 
2761.000000	86.781516 
2760.000000	86.781757 
2759.000000	86.782035 
2758.000000	86.781865 
2757.000000	86.781416 
2756.000000	86.781400 
2755.000000	86.782361 
2754.000000	86.784044 
2753.000000	86.785481 
2752.000000	86.785955 
2751.000000	86.785865 
2750.000000	86.786308 
2749.000000	86.787762 
2748.000000	86.789474 
2747.000000	86.790380 
2746.000000	86.790268 
2745.000000	86.789703 
2744.000000	86.789130 
2743.000000	86.788474 
2742.000000	86.787646 
2741.000000	86.786983 
2740.000000	86.786912 
2739.000000	86.787389 
2738.000000	86.787938 
2737.000000	86.788259 
2736.000000	86.788663 
2735.000000	86.789737 
2734.000000	86.791597 
2733.000000	86.793608 
2732.000000	86.794927 
2731.000000	86.795348 
2730.000000	86.795378 
2729.000000	86.795567 
2728.000000	86.795935 
2727.000000	86.796205 
2726.000000	86.796369 
2725.000000	86.796784 
2724.000000	86.797736 
2723.000000	86.799058 
2722.000000	86.800144 
2721.000000	86.800291 
2720.000000	86.799147 
2719.000000	86.797053 
2718.000000	86.794954 
2717.000000	86.793813 
2716.000000	86.794047 
2715.000000	86.795500 
2714.000000	86.797689 
2713.000000	86.799960 
2712.000000	86.801597 
2711.000000	86.802112 
2710.000000	86.801590 
2709.000000	86.800644 
2708.000000	86.799951 
2707.000000	86.799894 
2706.000000	86.800492 
2705.000000	86.801384 
2704.000000	86.801878 
2703.000000	86.801313 
2702.000000	86.799562 
2701.000000	86.797164 
2700.000000	86.794960 
2699.000000	86.793556 
2698.000000	86.793104 
2697.000000	86.793400 
2696.000000	86.794040 
2695.000000	86.794523 
2694.000000	86.794342 
2693.000000	86.793144 
2692.000000	86.790952 
2691.000000	86.788307 
2690.000000	86.786089 
2689.000000	86.784985 
2688.000000	86.785046 
2687.000000	86.785760 
2686.000000	86.786557 
2685.000000	86.787131 
2684.000000	86.787332 
2683.000000	86.786996 
2682.000000	86.786184 
2681.000000	86.785485 
2680.000000	86.785633 
2679.000000	86.786664 
2678.000000	86.787721 
2677.000000	86.787972 
2676.000000	86.787536 
2675.000000	86.787114 
2674.000000	86.787008 
2673.000000	86.787007 
2672.000000	86.787125 
2671.000000	86.787725 
2670.000000	86.788742 
2669.000000	86.789364 
2668.000000	86.788930 
2667.000000	86.787700 
2666.000000	86.786554 
2665.000000	86.786064 
2664.000000	86.786178 
2663.000000	86.786686 
2662.000000	86.787498 
2661.000000	86.788458 
2660.000000	86.789316 
2659.000000	86.790031 
2658.000000	86.790793 
2657.000000	86.791598 
2656.000000	86.792066 
2655.000000	86.791932 
2654.000000	86.791451 
2653.000000	86.791106 
2652.000000	86.791080 
2651.000000	86.791215 
2650.000000	86.791307 
2649.000000	86.791291 
2648.000000	86.791256 
2647.000000	86.791376 
2646.000000	86.791770 
2645.000000	86.792363 
2644.000000	86.792913 
2643.000000	86.793220 
2642.000000	86.793272 
2641.000000	86.793195 
2640.000000	86.793137 
2639.000000	86.793224 
2638.000000	86.793529 
2637.000000	86.793926 
2636.000000	86.794017 
2635.000000	86.793477 
2634.000000	86.792472 
2633.000000	86.791617 
2632.000000	86.791301 
2631.000000	86.791411 
2630.000000	86.791719 
2629.000000	86.792205 
2628.000000	86.792806 
2627.000000	86.793208 
2626.000000	86.793271 
2625.000000	86.793384 
2624.000000	86.793974 
2623.000000	86.794771 
2622.000000	86.795010 
2621.000000	86.794419 
2620.000000	86.793657 
2619.000000	86.793645 
2618.000000	86.794527 
2617.000000	86.795446 
2616.000000	86.795379 
2615.000000	86.794141 
2614.000000	86.792518 
2613.000000	86.791472 
2612.000000	86.791226 
2611.000000	86.791272 
2610.000000	86.791184 
2609.000000	86.791121 
2608.000000	86.791333 
2607.000000	86.791445 
2606.000000	86.790692 
2605.000000	86.788946 
2604.000000	86.787078 
2603.000000	86.785988 
2602.000000	86.785478 
2601.000000	86.784610 
2600.000000	86.783230 
2599.000000	86.782481 
2598.000000	86.783392 
2597.000000	86.785504 
2596.000000	86.787393 
2595.000000	86.788492 
2594.000000	86.789631 
2593.000000	86.791611 
2592.000000	86.793904 
2591.000000	86.795206 
2590.000000	86.794943 
2589.000000	86.793810 
2588.000000	86.793042 
2587.000000	86.793329 
2586.000000	86.794403 
2585.000000	86.795406 
2584.000000	86.795633 
2583.000000	86.795085 
2582.000000	86.794307 
2581.000000	86.793762 
2580.000000	86.793488 
2579.000000	86.793480 
2578.000000	86.794047 
2577.000000	86.795485 
2576.000000	86.797562 
2575.000000	86.799564 
2574.000000	86.800877 
2573.000000	86.801380 
2572.000000	86.801331 
2571.000000	86.801127 
2570.000000	86.801119 
2569.000000	86.801443 
2568.000000	86.801932 
2567.000000	86.802290 
2566.000000	86.802428 
2565.000000	86.802584 
2564.000000	86.803053 
2563.000000	86.803858 
2562.000000	86.804725 
2561.000000	86.805350 
2560.000000	86.805663 
2559.000000	86.805811 
2558.000000	86.805963 
2557.000000	86.806151 
2556.000000	86.806295 
2555.000000	86.806336 
2554.000000	86.806289 
2553.000000	86.806226 
2552.000000	86.806246 
2551.000000	86.806435 
2550.000000	86.806794 
2549.000000	86.807164 
2548.000000	86.807333 
2547.000000	86.807251 
2546.000000	86.807126 
2545.000000	86.807199 
2544.000000	86.807454 
2543.000000	86.807607 
2542.000000	86.807422 
2541.000000	86.806948 
2540.000000	86.806500 
2539.000000	86.806368 
2538.000000	86.806572 
2537.000000	86.806831 
2536.000000	86.806767 
2535.000000	86.806189 
2534.000000	86.805172 
2533.000000	86.803993 
2532.000000	86.802974 
2531.000000	86.802365 
2530.000000	86.802243 
2529.000000	86.802444 
2528.000000	86.802673 
2527.000000	86.802753 
2526.000000	86.802700 
2525.000000	86.802584 
2524.000000	86.802462 
2523.000000	86.802523 
2522.000000	86.803046 
2521.000000	86.803952 
2520.000000	86.804536 
2519.000000	86.804077 
2518.000000	86.802578 
2517.000000	86.800797 
2516.000000	86.799505 
2515.000000	86.798823 
2514.000000	86.798424 
2513.000000	86.798014 
2512.000000	86.797527 
2511.000000	86.796996 
2510.000000	86.796419 
2509.000000	86.795811 
2508.000000	86.795301 
2507.000000	86.795068 
2506.000000	86.795099 
2505.000000	86.795063 
2504.000000	86.794592 
2503.000000	86.793747 
2502.000000	86.793016 
2501.000000	86.792743 
2500.000000	86.792758 
2499.000000	86.792751 
2498.000000	86.792778 
2497.000000	86.793060 
2496.000000	86.793430 
2495.000000	86.793363 
2494.000000	86.792612 
2493.000000	86.791472 
2492.000000	86.790441 
2491.000000	86.789830 
2490.000000	86.789786 
2489.000000	86.790272 
2488.000000	86.790930 
2487.000000	86.791298 
2486.000000	86.791365 
2485.000000	86.791581 
2484.000000	86.792138 
2483.000000	86.792536 
2482.000000	86.792183 
2481.000000	86.791251 
2480.000000	86.790555 
2479.000000	86.790613 
2478.000000	86.791212 
2477.000000	86.791908 
2476.000000	86.792510 
2475.000000	86.792963 
2474.000000	86.793092 
2473.000000	86.792756 
2472.000000	86.792179 
2471.000000	86.791910 
2470.000000	86.792470 
2469.000000	86.793990 
2468.000000	86.795958 
2467.000000	86.797342 
2466.000000	86.797353 
2465.000000	86.796232 
2464.000000	86.795108 
2463.000000	86.794769 
2462.000000	86.794759 
2461.000000	86.794022 
2460.000000	86.792245 
2459.000000	86.790217 
2458.000000	86.788873 
2457.000000	86.788287 
2456.000000	86.787816 
2455.000000	86.787059 
2454.000000	86.786428 
2453.000000	86.786628 
2452.000000	86.787644 
2451.000000	86.788516 
2450.000000	86.788454 
2449.000000	86.788101 
2448.000000	86.789128 
2447.000000	86.792289 
2446.000000	86.796207 
2445.000000	86.798581 
2444.000000	86.798676 
2443.000000	86.797764 
2442.000000	86.797219 
2441.000000	86.796766 
2440.000000	86.795334 
2439.000000	86.792858 
2438.000000	86.790314 
2437.000000	86.788388 
2436.000000	86.787093 
2435.000000	86.786552 
2434.000000	86.787138 
2433.000000	86.788614 
2432.000000	86.789966 
2431.000000	86.790557 
2430.000000	86.790893 
2429.000000	86.791774 
2428.000000	86.793103 
2427.000000	86.793952 
2426.000000	86.793597 
2425.000000	86.792116 
2424.000000	86.790154 
2423.000000	86.788328 
2422.000000	86.786764 
2421.000000	86.785205 
2420.000000	86.783753 
2419.000000	86.783318 
2418.000000	86.784788 
2417.000000	86.787720 
2416.000000	86.790545 
2415.000000	86.792124 
2414.000000	86.792524 
2413.000000	86.792142 
2412.000000	86.791197 
2411.000000	86.790449 
2410.000000	86.791180 
2409.000000	86.793651 
2408.000000	86.796284 
2407.000000	86.797444 
2406.000000	86.797433 
2405.000000	86.797536 
2404.000000	86.797983 
2403.000000	86.797914 
2402.000000	86.796966 
2401.000000	86.795925 
2400.000000	86.795654 
2399.000000	86.796019 
2398.000000	86.796212 
2397.000000	86.795674 
2396.000000	86.794405 
2395.000000	86.792736 
2394.000000	86.791078 
2393.000000	86.789801 
2392.000000	86.789143 
2391.000000	86.789046 
2390.000000	86.789083 
2389.000000	86.788763 
2388.000000	86.788007 
2387.000000	86.787184 
2386.000000	86.786610 
2385.000000	86.786193 
2384.000000	86.785773 
2383.000000	86.785591 
2382.000000	86.786055 
2381.000000	86.787154 
2380.000000	86.788471 
2379.000000	86.789747 
2378.000000	86.791047 
2377.000000	86.792265 
2376.000000	86.793017 
2375.000000	86.793236 
2374.000000	86.793500 
2373.000000	86.794426 
2372.000000	86.795904 
2371.000000	86.797181 
2370.000000	86.797740 
2369.000000	86.797734 
2368.000000	86.797584 
2367.000000	86.797554 
2366.000000	86.797846 
2365.000000	86.798733 
2364.000000	86.800241 
2363.000000	86.801739 
2362.000000	86.802402 
2361.000000	86.802047 
2360.000000	86.801157 
2359.000000	86.800254 
2358.000000	86.799559 
2357.000000	86.799295 
2356.000000	86.799804 
2355.000000	86.801085 
2354.000000	86.802624 
2353.000000	86.803671 
2352.000000	86.803762 
2351.000000	86.803091 
2350.000000	86.802305 
2349.000000	86.801892 
2348.000000	86.801777 
2347.000000	86.801654 
2346.000000	86.801460 
2345.000000	86.801212 
2344.000000	86.800943 
2343.000000	86.800665 
2342.000000	86.800453 
2341.000000	86.800028 
2340.000000	86.798999 
2339.000000	86.797844 
2338.000000	86.797981 
2337.000000	86.800459 
2336.000000	86.804147 
2335.000000	86.806602 
2334.000000	86.806524 
2333.000000	86.805028 
2332.000000	86.803481 
2331.000000	86.802072 
2330.000000	86.799606 
2329.000000	86.795481 
2328.000000	86.789722 
2327.000000	86.783534 
2326.000000	86.778791 
2325.000000	86.776804 
2324.000000	86.777319 
2323.000000	86.778913 
2322.000000	86.780502 
2321.000000	86.781859 
2320.000000	86.782697 
2319.000000	86.782890 
2318.000000	86.782565 
2317.000000	86.782445 
2316.000000	86.782440 
2315.000000	86.782331 
2314.000000	86.782110 
2313.000000	86.782569 
2312.000000	86.783601 
2311.000000	86.784370 
2310.000000	86.783931 
2309.000000	86.782250 
2308.000000	86.779301 
2307.000000	86.775077 
2306.000000	86.770204 
2305.000000	86.766574 
2304.000000	86.765755 
2303.000000	86.767679 
2302.000000	86.770533 
2301.000000	86.772567 
2300.000000	86.773215 
2299.000000	86.773194 
2298.000000	86.773362 
2297.000000	86.774181 
2296.000000	86.775265 
2295.000000	86.775773 
2294.000000	86.775133 
2293.000000	86.773779 
2292.000000	86.772770 
2291.000000	86.772794 
2290.000000	86.773620 
2289.000000	86.774524 
2288.000000	86.775002 
2287.000000	86.775024 
2286.000000	86.774830 
2285.000000	86.774616 
2284.000000	86.774483 
2283.000000	86.774504 
2282.000000	86.774748 
2281.000000	86.775204 
2280.000000	86.775781 
2279.000000	86.776321 
2278.000000	86.776667 
2277.000000	86.776779 
2276.000000	86.776797 
2275.000000	86.776936 
2274.000000	86.777224 
2273.000000	86.777417 
2272.000000	86.777256 
2271.000000	86.776773 
2270.000000	86.776317 
2269.000000	86.776246 
2268.000000	86.776591 
2267.000000	86.777113 
2266.000000	86.777530 
2265.000000	86.777754 
2264.000000	86.777858 
2263.000000	86.777937 
2262.000000	86.778049 
2261.000000	86.778216 
2260.000000	86.778416 
2259.000000	86.778575 
2258.000000	86.778629 
2257.000000	86.778629 
2256.000000	86.778720 
2255.000000	86.779005 
2254.000000	86.779466 
2253.000000	86.780049 
2252.000000	86.780737 
2251.000000	86.781436 
2250.000000	86.781894 
2249.000000	86.781904 
2248.000000	86.781605 
2247.000000	86.781432 
2246.000000	86.781586 
2245.000000	86.781801 
2244.000000	86.781817 
2243.000000	86.781912 
2242.000000	86.782597 
2241.000000	86.783818 
2240.000000	86.784845 
2239.000000	86.785166 
2238.000000	86.785072 
2237.000000	86.785110 
2236.000000	86.785205 
2235.000000	86.784868 
2234.000000	86.784011 
2233.000000	86.783049 
2232.000000	86.782402 
2231.000000	86.782223 
2230.000000	86.782567 
2229.000000	86.783370 
2228.000000	86.784206 
2227.000000	86.784598 
2226.000000	86.784626 
2225.000000	86.784827 
2224.000000	86.785456 
2223.000000	86.786210 
2222.000000	86.786699 
2221.000000	86.786931 
2220.000000	86.787177 
2219.000000	86.787591 
2218.000000	86.788138 
2217.000000	86.788728 
2216.000000	86.789283 
2215.000000	86.789735 
2214.000000	86.790069 
2213.000000	86.790345 
2212.000000	86.790640 
2211.000000	86.790976 
2210.000000	86.791327 
2209.000000	86.791678 
2208.000000	86.792034 
2207.000000	86.792404 
2206.000000	86.792780 
2205.000000	86.793152 
2204.000000	86.793516 
2203.000000	86.793871 
2202.000000	86.794213 
2201.000000	86.794550 
2200.000000	86.794890 
2199.000000	86.795244 
2198.000000	86.795616 
2197.000000	86.796008 
2196.000000	86.796415 
2195.000000	86.796834 
2194.000000	86.797265 
2193.000000	86.797710 
2192.000000	86.798166 
2191.000000	86.798626 
2190.000000	86.799078 
2189.000000	86.799516 
2188.000000	86.799940 
2187.000000	86.800354 
2186.000000	86.800761 
2185.000000	86.801159 
2184.000000	86.801543 
2183.000000	86.801904 
2182.000000	86.802241 
2181.000000	86.802558 
2180.000000	86.802861 
2179.000000	86.803155 
2178.000000	86.803439 
2177.000000	86.803712 
2176.000000	86.803974 
2175.000000	86.804224 
2174.000000	86.804464 
2173.000000	86.804698 
2172.000000	86.804929 
2171.000000	86.805165 
2170.000000	86.805410 
2169.000000	86.805668 
2168.000000	86.805932 
2167.000000	86.806194 
2166.000000	86.806446 
2165.000000	86.806682 
2164.000000	86.806902 
2163.000000	86.807109 
2162.000000	86.807308 
2161.000000	86.807507 
2160.000000	86.807712 
2159.000000	86.807928 
2158.000000	86.808152 
2157.000000	86.808374 
2156.000000	86.808582 
2155.000000	86.808769 
2154.000000	86.808932 
2153.000000	86.809077 
2152.000000	86.809210 
2151.000000	86.809332 
2150.000000	86.809445 
2149.000000	86.809552 
2148.000000	86.809654 
2147.000000	86.809754 
2146.000000	86.809849 
2145.000000	86.809935 
2144.000000	86.810007 
2143.000000	86.810066 
2142.000000	86.810123 
2141.000000	86.810187 
2140.000000	86.810257 
2139.000000	86.810319 
2138.000000	86.810366 
2137.000000	86.810413 
2136.000000	86.810489 
2135.000000	86.810607 
2134.000000	86.810740 
2133.000000	86.810833 
2132.000000	86.810853 
2131.000000	86.810820 
2130.000000	86.810796 
2129.000000	86.810812 
2128.000000	86.810828 
2127.000000	86.810775 
2126.000000	86.810619 
2125.000000	86.810372 
2124.000000	86.810066 
2123.000000	86.809739 
2122.000000	86.809452 
2121.000000	86.809261 
2120.000000	86.809178 
2119.000000	86.809161 
2118.000000	86.809135 
2117.000000	86.809048 
2116.000000	86.808885 
2115.000000	86.808659 
2114.000000	86.808405 
2113.000000	86.808160 
2112.000000	86.807945 
2111.000000	86.807758 
2110.000000	86.807578 
2109.000000	86.807391 
2108.000000	86.807200 
2107.000000	86.807027 
2106.000000	86.806905 
2105.000000	86.806847 
2104.000000	86.806789 
2103.000000	86.806598 
2102.000000	86.806219 
2101.000000	86.805812 
2100.000000	86.805663 
2099.000000	86.805863 
2098.000000	86.806112 
2097.000000	86.805972 
2096.000000	86.805364 
2095.000000	86.804673 
2094.000000	86.804273 
2093.000000	86.804045 
2092.000000	86.803571 
2091.000000	86.802794 
2090.000000	86.802189 
2089.000000	86.802134 
2088.000000	86.802426 
2087.000000	86.802565 
2086.000000	86.802322 
2085.000000	86.801814 
2084.000000	86.801262 
2083.000000	86.800971 
2082.000000	86.801311 
2081.000000	86.802309 
2080.000000	86.803371 
2079.000000	86.803959 
2078.000000	86.804362 
2077.000000	86.805210 
2076.000000	86.806285 
2075.000000	86.806588 
2074.000000	86.805720 
2073.000000	86.804335 
2072.000000	86.803047 
2071.000000	86.801706 
2070.000000	86.800158 
2069.000000	86.798955 
2068.000000	86.798658 
2067.000000	86.798996 
2066.000000	86.799306 
2065.000000	86.799509 
2064.000000	86.799975 
2063.000000	86.800629 
2062.000000	86.800875 
2061.000000	86.800357 
2060.000000	86.799185 
2059.000000	86.797420 
2058.000000	86.794939 
2057.000000	86.792030 
2056.000000	86.789605 
2055.000000	86.788475 
2054.000000	86.788741 
2053.000000	86.789867 
2052.000000	86.791099 
2051.000000	86.791829 
2050.000000	86.791770 
2049.000000	86.791033 
2048.000000	86.790016 
2047.000000	86.789011 
2046.000000	86.787905 
2045.000000	86.786409 
2044.000000	86.784503 
2043.000000	86.782586 
2042.000000	86.781169 
2041.000000	86.780417 
2040.000000	86.779987 
2039.000000	86.779325 
2038.000000	86.778210 
2037.000000	86.776967 
2036.000000	86.776089 
2035.000000	86.775695 
2034.000000	86.775426 
2033.000000	86.774861 
2032.000000	86.773947 
2031.000000	86.772959 
2030.000000	86.772119 
2029.000000	86.771330 
2028.000000	86.770340 
2027.000000	86.769072 
2026.000000	86.767711 
2025.000000	86.766484 
2024.000000	86.765444 
2023.000000	86.764537 
2022.000000	86.763748 
2021.000000	86.763085 
2020.000000	86.762432 
2019.000000	86.761546 
2018.000000	86.760256 
2017.000000	86.758667 
2016.000000	86.757183 
2015.000000	86.756227 
2014.000000	86.755938 
2013.000000	86.756124 
2012.000000	86.756364 
2011.000000	86.756282 
2010.000000	86.755754 
2009.000000	86.754888 
2008.000000	86.753830 
2007.000000	86.752648 
2006.000000	86.751392 
2005.000000	86.750198 
2004.000000	86.749227 
2003.000000	86.748570 
2002.000000	86.748245 
2001.000000	86.748266 
2000.000000	86.748547 
1999.000000	86.748741 
1998.000000	86.748435 
1997.000000	86.747535 
1996.000000	86.746451 
1995.000000	86.745749 
1994.000000	86.745562 
1993.000000	86.745502 
1992.000000	86.745231 
1991.000000	86.744962 
1990.000000	86.745095 
1989.000000	86.745543 
1988.000000	86.745791 
1987.000000	86.745625 
1986.000000	86.745431 
1985.000000	86.745668 
1984.000000	86.746325 
1983.000000	86.747104 
1982.000000	86.747842 
1981.000000	86.748481 
1980.000000	86.748790 
1979.000000	86.748547 
1978.000000	86.748055 
1977.000000	86.748023 
1976.000000	86.748816 
1975.000000	86.750063 
1974.000000	86.751044 
1973.000000	86.751425 
1972.000000	86.751471 
1971.000000	86.751716 
1970.000000	86.752449 
1969.000000	86.753433 
1968.000000	86.754116 
1967.000000	86.754278 
1966.000000	86.754384 
1965.000000	86.755087 
1964.000000	86.756479 
1963.000000	86.758004 
1962.000000	86.759153 
1961.000000	86.759983 
1960.000000	86.760842 
1959.000000	86.761817 
1958.000000	86.762695 
1957.000000	86.763395 
1956.000000	86.764043 
1955.000000	86.764559 
1954.000000	86.764631 
1953.000000	86.764169 
1952.000000	86.763555 
1951.000000	86.763298 
1950.000000	86.763508 
1949.000000	86.763976 
1948.000000	86.764474 
1947.000000	86.764884 
1946.000000	86.765223 
1945.000000	86.765651 
1944.000000	86.766316 
1943.000000	86.767039 
1942.000000	86.767339 
1941.000000	86.766992 
1940.000000	86.766480 
1939.000000	86.766638 
1938.000000	86.767801 
1937.000000	86.769332 
1936.000000	86.770056 
1935.000000	86.769335 
1934.000000	86.767714 
1933.000000	86.766471 
1932.000000	86.766401 
1931.000000	86.767004 
1930.000000	86.766965 
1929.000000	86.765870 
1928.000000	86.764775 
1927.000000	86.765028 
1926.000000	86.766584 
1925.000000	86.767770 
1924.000000	86.767293 
1923.000000	86.765648 
1922.000000	86.764836 
1921.000000	86.766205 
1920.000000	86.768910 
1919.000000	86.770415 
1918.000000	86.768724 
1917.000000	86.764401 
1916.000000	86.760035 
1915.000000	86.757399 
1914.000000	86.756150 
1913.000000	86.754845 
1912.000000	86.752754 
1911.000000	86.750381 
1910.000000	86.748534 
1909.000000	86.747377 
1908.000000	86.746170 
1907.000000	86.744191 
1906.000000	86.741439 
1905.000000	86.738435 
1904.000000	86.736040 
1903.000000	86.734507 
1902.000000	86.733455 
1901.000000	86.732430 
1900.000000	86.731123 
1899.000000	86.729478 
1898.000000	86.727653 
1897.000000	86.725625 
1896.000000	86.723350 
1895.000000	86.721039 
1894.000000	86.719456 
1893.000000	86.719344 
1892.000000	86.720402 
1891.000000	86.721332 
1890.000000	86.721251 
1889.000000	86.720687 
1888.000000	86.720469 
1887.000000	86.720367 
1886.000000	86.719822 
1885.000000	86.719326 
1884.000000	86.720219 
1883.000000	86.722850 
1882.000000	86.725721 
1881.000000	86.726966 
1880.000000	86.726077 
1879.000000	86.724179 
1878.000000	86.722784 
1877.000000	86.722359 
1876.000000	86.722649 
1875.000000	86.723692 
1874.000000	86.725592 
1873.000000	86.727601 
1872.000000	86.728178 
1871.000000	86.726497 
1870.000000	86.724016 
1869.000000	86.723861 
1868.000000	86.727428 
1867.000000	86.732652 
1866.000000	86.736613 
1865.000000	86.738661 
1864.000000	86.739910 
1863.000000	86.741494 
1862.000000	86.743709 
1861.000000	86.746171 
1860.000000	86.748270 
1859.000000	86.749670 
1858.000000	86.750796 
1857.000000	86.752588 
1856.000000	86.755405 
1855.000000	86.758446 
1854.000000	86.760660 
1853.000000	86.762002 
1852.000000	86.763037 
1851.000000	86.763917 
1850.000000	86.764683 
1849.000000	86.765626 
1848.000000	86.767164 
1847.000000	86.769122 
1846.000000	86.770851 
1845.000000	86.772113 
1844.000000	86.773691 
1843.000000	86.776269 
1842.000000	86.779267 
1841.000000	86.781980 
1840.000000	86.784255 
1839.000000	86.786309 
1838.000000	86.788387 
1837.000000	86.790406 
1836.000000	86.792076 
1835.000000	86.792985 
1834.000000	86.793137 
1833.000000	86.793301 
1832.000000	86.794475 
1831.000000	86.797041 
1830.000000	86.800188 
1829.000000	86.801858 
1828.000000	86.800645 
1827.000000	86.797264 
1826.000000	86.793584 
1825.000000	86.791328 
1824.000000	86.791831 
1823.000000	86.795314 
1822.000000	86.800392 
1821.000000	86.804939 
1820.000000	86.807650 
1819.000000	86.809053 
1818.000000	86.810128 
1817.000000	86.811142 
1816.000000	86.812483 
1815.000000	86.814112 
1814.000000	86.814854 
1813.000000	86.813101 
1812.000000	86.809495 
1811.000000	86.807868 
1810.000000	86.810463 
1809.000000	86.815544 
1808.000000	86.820276 
1807.000000	86.823826 
1806.000000	86.827220 
1805.000000	86.830992 
1804.000000	86.833994 
1803.000000	86.834400 
1802.000000	86.832560 
1801.000000	86.831280 
1800.000000	86.832470 
1799.000000	86.835423 
1798.000000	86.837779 
1797.000000	86.839156 
1796.000000	86.840626 
1795.000000	86.842393 
1794.000000	86.843967 
1793.000000	86.846051 
1792.000000	86.850377 
1791.000000	86.856276 
1790.000000	86.860518 
1789.000000	86.863552 
1788.000000	86.868915 
1787.000000	86.878283 
1786.000000	86.888919 
1785.000000	86.896557 
1784.000000	86.900664 
1783.000000	86.904179 
1782.000000	86.909670 
1781.000000	86.915664 
1780.000000	86.918076 
1779.000000	86.917333 
1778.000000	86.917135 
1777.000000	86.920039 
1776.000000	86.924978 
1775.000000	86.931730 
1774.000000	86.944136 
1773.000000	86.964555 
1772.000000	86.987125 
1771.000000	87.002567 
1770.000000	87.010341 
1769.000000	87.018442 
1768.000000	87.032680 
1767.000000	87.052143 
1766.000000	87.072725 
1765.000000	87.091894 
1764.000000	87.109955 
1763.000000	87.128259 
1762.000000	87.147348 
1761.000000	87.165642 
1760.000000	87.181424 
1759.000000	87.197367 
1758.000000	87.217812 
1757.000000	87.244410 
1756.000000	87.272569 
1755.000000	87.297181 
1754.000000	87.318012 
1753.000000	87.336051 
1752.000000	87.349561 
1751.000000	87.359094 
1750.000000	87.370321 
1749.000000	87.386560 
1748.000000	87.404835 
1747.000000	87.420331 
1746.000000	87.433681 
1745.000000	87.447207 
1744.000000	87.459700 
1743.000000	87.468423 
1742.000000	87.472527 
1741.000000	87.474274 
1740.000000	87.476729 
1739.000000	87.480023 
1738.000000	87.480173 
1737.000000	87.474336 
1736.000000	87.460434 
1735.000000	87.433939 
1734.000000	87.399180 
1733.000000	87.372159 
1732.000000	87.357917 
1731.000000	87.353756 
1730.000000	87.355143 
1729.000000	87.355696 
1728.000000	87.350471 
1727.000000	87.339387 
1726.000000	87.326241 
1725.000000	87.313090 
1724.000000	87.299941 
1723.000000	87.287058 
1722.000000	87.273631 
1721.000000	87.258843 
1720.000000	87.242041 
1719.000000	87.222233 
1718.000000	87.199129 
1717.000000	87.176712 
1716.000000	87.160089 
1715.000000	87.148987 
1714.000000	87.138386 
1713.000000	87.123383 
1712.000000	87.103438 
1711.000000	87.080762 
1710.000000	87.057840 
1709.000000	87.036394 
1708.000000	87.016475 
1707.000000	86.997761 
1706.000000	86.980727 
1705.000000	86.965804 
1704.000000	86.951932 
1703.000000	86.937628 
1702.000000	86.922204 
1701.000000	86.903324 
1700.000000	86.884621 
1699.000000	86.871076 
1698.000000	86.861234 
1697.000000	86.859031 
1696.000000	86.864093 
1695.000000	86.867808 
1694.000000	86.862552 
1693.000000	86.851900 
1692.000000	86.843593 
1691.000000	86.839352 
1690.000000	86.836528 
1689.000000	86.832906 
1688.000000	86.827631 
1687.000000	86.822951 
1686.000000	86.821844 
1685.000000	86.823209 
1684.000000	86.823868 
1683.000000	86.818309 
1682.000000	86.806416 
1681.000000	86.797268 
1680.000000	86.792621 
1679.000000	86.790233 
1678.000000	86.790552 
1677.000000	86.794443 
1676.000000	86.798729 
1675.000000	86.799723 
1674.000000	86.799083 
1673.000000	86.799675 
1672.000000	86.801298 
1671.000000	86.801436 
1670.000000	86.799354 
1669.000000	86.798691 
1668.000000	86.798698 
1667.000000	86.795439 
1666.000000	86.788982 
1665.000000	86.782326 
1664.000000	86.778481 
1663.000000	86.778562 
1662.000000	86.781425 
1661.000000	86.784717 
1660.000000	86.786398 
1659.000000	86.786928 
1658.000000	86.787855 
1657.000000	86.789590 
1656.000000	86.790490 
1655.000000	86.788450 
1654.000000	86.781517 
1653.000000	86.775253 
1652.000000	86.775288 
1651.000000	86.775023 
1650.000000	86.774536 
1649.000000	86.775694 
1648.000000	86.777397 
1647.000000	86.778035 
1646.000000	86.777863 
1645.000000	86.777776 
1644.000000	86.778312 
1643.000000	86.778721 
1642.000000	86.777953 
1641.000000	86.776102 
1640.000000	86.773873 
1639.000000	86.771984 
1638.000000	86.770632 
1637.000000	86.769805 
1636.000000	86.769875 
1635.000000	86.771181 
1634.000000	86.772359 
1633.000000	86.772167 
1632.000000	86.771350 
1631.000000	86.770232 
1630.000000	86.769365 
1629.000000	86.769893 
1628.000000	86.771905 
1627.000000	86.773242 
1626.000000	86.772031 
1625.000000	86.769038 
1624.000000	86.766637 
1623.000000	86.766634 
1622.000000	86.768365 
1621.000000	86.769733 
1620.000000	86.769782 
1619.000000	86.769452 
1618.000000	86.770302 
1617.000000	86.773609 
1616.000000	86.778053 
1615.000000	86.780184 
1614.000000	86.780436 
1613.000000	86.782076 
1612.000000	86.785997 
1611.000000	86.790393 
1610.000000	86.793886 
1609.000000	86.796953 
1608.000000	86.800252 
1607.000000	86.803464 
1606.000000	86.806053 
1605.000000	86.807882 
1604.000000	86.809073 
1603.000000	86.810847 
1602.000000	86.814392 
1601.000000	86.818953 
1600.000000	86.822312 
1599.000000	86.823548 
1598.000000	86.824252 
1597.000000	86.826512 
1596.000000	86.830759 
1595.000000	86.835961 
1594.000000	86.841026 
1593.000000	86.845479 
1592.000000	86.849101 
1591.000000	86.851880 
1590.000000	86.854309 
1589.000000	86.857049 
1588.000000	86.860187 
1587.000000	86.863341 
1586.000000	86.866347 
1585.000000	86.869524 
1584.000000	86.873009 
1583.000000	86.876700 
1582.000000	86.880731 
1581.000000	86.885071 
1580.000000	86.889348 
1579.000000	86.893386 
1578.000000	86.897482 
1577.000000	86.901752 
1576.000000	86.905931 
1575.000000	86.909379 
1574.000000	86.911778 
1573.000000	86.913665 
1572.000000	86.915630 
1571.000000	86.918211 
1570.000000	86.922081 
1569.000000	86.927195 
1568.000000	86.932033 
1567.000000	86.935913 
1566.000000	86.939702 
1565.000000	86.943811 
1564.000000	86.947528 
1563.000000	86.950446 
1562.000000	86.953294 
1561.000000	86.956550 
1560.000000	86.958160 
1559.000000	86.957600 
1558.000000	86.958946 
1557.000000	86.962020 
1556.000000	86.965373 
1555.000000	86.968070 
1554.000000	86.970325 
1553.000000	86.973080 
1552.000000	86.976282 
1551.000000	86.979159 
1550.000000	86.981336 
1549.000000	86.983335 
1548.000000	86.985572 
1547.000000	86.987519 
1546.000000	86.988915 
1545.000000	86.990441 
1544.000000	86.993225 
1543.000000	86.997428 
1542.000000	87.001724 
1541.000000	87.004102 
1540.000000	87.004158 
1539.000000	87.003487 
1538.000000	87.003430 
1537.000000	87.004482 
1536.000000	87.006313 
1535.000000	87.007604 
1534.000000	87.007663 
1533.000000	87.007556 
1532.000000	87.008166 
1531.000000	87.009176 
1530.000000	87.009985 
1529.000000	87.010631 
1528.000000	87.011877 
1527.000000	87.014274 
1526.000000	87.017644 
1525.000000	87.021233 
1524.000000	87.024058 
1523.000000	87.025235 
1522.000000	87.024352 
1521.000000	87.023036 
1520.000000	87.023745 
1519.000000	87.027076 
1518.000000	87.032106 
1517.000000	87.036757 
1516.000000	87.039430 
1515.000000	87.040642 
1514.000000	87.042276 
1513.000000	87.045337 
1512.000000	87.049324 
1511.000000	87.053189 
1510.000000	87.056261 
1509.000000	87.058783 
1508.000000	87.061063 
1507.000000	87.063362 
1506.000000	87.065999 
1505.000000	87.068777 
1504.000000	87.071718 
1503.000000	87.075257 
1502.000000	87.079448 
1501.000000	87.083947 
1500.000000	87.088509 
1499.000000	87.093232 
1498.000000	87.098164 
1497.000000	87.102475 
1496.000000	87.105179 
1495.000000	87.105901 
1494.000000	87.105314 
1493.000000	87.105096 
1492.000000	87.106658 
1491.000000	87.110389 
1490.000000	87.115535 
1489.000000	87.120962 
1488.000000	87.126378 
1487.000000	87.131792 
1486.000000	87.136444 
1485.000000	87.140634 
1484.000000	87.144337 
1483.000000	87.146373 
1482.000000	87.146173 
1481.000000	87.145097 
1480.000000	87.146455 
1479.000000	87.152109 
1478.000000	87.161078 
1477.000000	87.169945 
1476.000000	87.175890 
1475.000000	87.178824 
1474.000000	87.181601 
1473.000000	87.186905 
1472.000000	87.193618 
1471.000000	87.199478 
1470.000000	87.204997 
1469.000000	87.211983 
1468.000000	87.219600 
1467.000000	87.225281 
1466.000000	87.228605 
1465.000000	87.233142 
1464.000000	87.240836 
1463.000000	87.249040 
1462.000000	87.254464 
1461.000000	87.256854 
1460.000000	87.258316 
1459.000000	87.261484 
1458.000000	87.267223 
1457.000000	87.272288 
1456.000000	87.272896 
1455.000000	87.269995 
1454.000000	87.268162 
1453.000000	87.268047 
1452.000000	87.267421 
1451.000000	87.265902 
1450.000000	87.265373 
1449.000000	87.266693 
1448.000000	87.268078 
1447.000000	87.266973 
1446.000000	87.264227 
1445.000000	87.262562 
1444.000000	87.261650 
1443.000000	87.259539 
1442.000000	87.254768 
1441.000000	87.248617 
1440.000000	87.243645 
1439.000000	87.241236 
1438.000000	87.239309 
1437.000000	87.234609 
1436.000000	87.229253 
1435.000000	87.228437 
1434.000000	87.233161 
1433.000000	87.240331 
1432.000000	87.246702 
1431.000000	87.250739 
1430.000000	87.251996 
1429.000000	87.249224 
1428.000000	87.242583 
1427.000000	87.234650 
1426.000000	87.228939 
1425.000000	87.226105 
1424.000000	87.222854 
1423.000000	87.217597 
1422.000000	87.212044 
1421.000000	87.207314 
1420.000000	87.199865 
1419.000000	87.185553 
1418.000000	87.166961 
1417.000000	87.151646 
1416.000000	87.144930 
1415.000000	87.145189 
1414.000000	87.145676 
1413.000000	87.140431 
1412.000000	87.129858 
1411.000000	87.120199 
1410.000000	87.116184 
1409.000000	87.116379 
1408.000000	87.117357 
1407.000000	87.117832 
1406.000000	87.118883 
1405.000000	87.121955 
1404.000000	87.127366 
1403.000000	87.135420 
1402.000000	87.145537 
1401.000000	87.155778 
1400.000000	87.163981 
1399.000000	87.169212 
1398.000000	87.170279 
1397.000000	87.163792 
1396.000000	87.147922 
1395.000000	87.129942 
1394.000000	87.126152 
1393.000000	87.145527 
1392.000000	87.180329 
1391.000000	87.215974 
1390.000000	87.242881 
1389.000000	87.260514 
1388.000000	87.274175 
1387.000000	87.288583 
1386.000000	87.304306 
1385.000000	87.320185 
1384.000000	87.336330 
1383.000000	87.354218 
1382.000000	87.374703 
1381.000000	87.396716 
1380.000000	87.417450 
1379.000000	87.433816 
1378.000000	87.444971 
1377.000000	87.452692 
1376.000000	87.459069 
1375.000000	87.464634 
1374.000000	87.469199 
1373.000000	87.472390 
1372.000000	87.473299 
1371.000000	87.471048 
1370.000000	87.466971 
1369.000000	87.465209 
1368.000000	87.468762 
1367.000000	87.475885 
1366.000000	87.480867 
1365.000000	87.478544 
1364.000000	87.468089 
1363.000000	87.454571 
1362.000000	87.445782 
1361.000000	87.445122 
1360.000000	87.449399 
1359.000000	87.454023 
1358.000000	87.457511 
1357.000000	87.460403 
1356.000000	87.462144 
1355.000000	87.461374 
1354.000000	87.458430 
1353.000000	87.455019 
1352.000000	87.451541 
1351.000000	87.446175 
1350.000000	87.438038 
1349.000000	87.429072 
1348.000000	87.421419 
1347.000000	87.415798 
1346.000000	87.412188 
1345.000000	87.410525 
1344.000000	87.409142 
1343.000000	87.404294 
1342.000000	87.392983 
1341.000000	87.376622 
1340.000000	87.361120 
1339.000000	87.351977 
1338.000000	87.348895 
1337.000000	87.346649 
1336.000000	87.341191 
1335.000000	87.333577 
1334.000000	87.327890 
1333.000000	87.326263 
1332.000000	87.326668 
1331.000000	87.325309 
1330.000000	87.320408 
1329.000000	87.313350 
1328.000000	87.307004 
1327.000000	87.303553 
1326.000000	87.303148 
1325.000000	87.303490 
1324.000000	87.301081 
1323.000000	87.294100 
1322.000000	87.284076 
1321.000000	87.274595 
1320.000000	87.268257 
1319.000000	87.265153 
1318.000000	87.263685 
1317.000000	87.262380 
1316.000000	87.260730 
1315.000000	87.258611 
1314.000000	87.255746 
1313.000000	87.252062 
1312.000000	87.248220 
1311.000000	87.245137 
1310.000000	87.242835 
1309.000000	87.240297 
1308.000000	87.236955 
1307.000000	87.233828 
1306.000000	87.232399 
1305.000000	87.232418 
1304.000000	87.231776 
1303.000000	87.228878 
1302.000000	87.224143 
1301.000000	87.218761 
1300.000000	87.212803 
1299.000000	87.205508 
1298.000000	87.197028 
1297.000000	87.188993 
1296.000000	87.183242 
1295.000000	87.180287 
1294.000000	87.179003 
1293.000000	87.177546 
1292.000000	87.174685 
1291.000000	87.170427 
1290.000000	87.165410 
1289.000000	87.159885 
1288.000000	87.153566 
1287.000000	87.146355 
1286.000000	87.138787 
1285.000000	87.131919 
1284.000000	87.127217 
1283.000000	87.125966 
1282.000000	87.127612 
1281.000000	87.128880 
1280.000000	87.125993 
1279.000000	87.118103 
1278.000000	87.107813 
1277.000000	87.098467 
1276.000000	87.091795 
1275.000000	87.087957 
1274.000000	87.085913 
1273.000000	87.082953 
1272.000000	87.075703 
1271.000000	87.063149 
1270.000000	87.047966 
1269.000000	87.034076 
1268.000000	87.024042 
1267.000000	87.019153 
1266.000000	87.019008 
1265.000000	87.019323 
1264.000000	87.013087 
1263.000000	86.996979 
1262.000000	86.975367 
1261.000000	86.955829 
1260.000000	86.942104 
1259.000000	86.933095 
1258.000000	86.926566 
1257.000000	86.921056 
1256.000000	86.915408 
1255.000000	86.909116 
1254.000000	86.902744 
1253.000000	86.896253 
1252.000000	86.888172 
1251.000000	86.878530 
1250.000000	86.871061 
1249.000000	86.869483 
1248.000000	86.872209 
1247.000000	86.873537 
1246.000000	86.869982 
1245.000000	86.863182 
1244.000000	86.857039 
1243.000000	86.854652 
1242.000000	86.857863 
1241.000000	86.866737 
1240.000000	86.878536 
1239.000000	86.889237 
1238.000000	86.897015 
1237.000000	86.902991 
1236.000000	86.908724 
1235.000000	86.915180 
1234.000000	86.924002 
1233.000000	86.936251 
1232.000000	86.948267 
1231.000000	86.951746 
1230.000000	86.940961 
1229.000000	86.918765 
1228.000000	86.893191 
1227.000000	86.868524 
1226.000000	86.841532 
1225.000000	86.806480 
1224.000000	86.762514 
1223.000000	86.716324 
1222.000000	86.678941 
1221.000000	86.659671 
1220.000000	86.660397 
1219.000000	86.672514 
1218.000000	86.679407 
1217.000000	86.665331 
1216.000000	86.624737 
1215.000000	86.564419 
1214.000000	86.497151 
1213.000000	86.432885 
1212.000000	86.375429 
1211.000000	86.324678 
1210.000000	86.278512 
1209.000000	86.233088 
1208.000000	86.185032 
1207.000000	86.135104 
1206.000000	86.087769 
1205.000000	86.045217 
1204.000000	86.002763 
1203.000000	85.951948 
1202.000000	85.888550 
1201.000000	85.817020 
1200.000000	85.746976 
1199.000000	85.685084 
1198.000000	85.629888 
1197.000000	85.574581 
1196.000000	85.514599 
1195.000000	85.451621 
1194.000000	85.390333 
1193.000000	85.333301 
1192.000000	85.280137 
1191.000000	85.229637 
1190.000000	85.180460 
1189.000000	85.130890 
1188.000000	85.080231 
1187.000000	85.029946 
1186.000000	84.981462 
1185.000000	84.933558 
1184.000000	84.883991 
1183.000000	84.833191 
1182.000000	84.784004 
1181.000000	84.737692 
1180.000000	84.691994 
1179.000000	84.643165 
1178.000000	84.588370 
1177.000000	84.526366 
1176.000000	84.457957 
1175.000000	84.386265 
1174.000000	84.314989 
1173.000000	84.245815 
1172.000000	84.178391 
1171.000000	84.112313 
1170.000000	84.047392 
1169.000000	83.982460 
1168.000000	83.916108 
1167.000000	83.849394 
1166.000000	83.787018 
1165.000000	83.735842 
1164.000000	83.702839 
1163.000000	83.693246 
1162.000000	83.708193 
1161.000000	83.742834 
1160.000000	83.786724 
1159.000000	83.826747 
1158.000000	83.851710 
1157.000000	83.856124 
1156.000000	83.840489 
1155.000000	83.808524 
1154.000000	83.764529 
1153.000000	83.712631 
1152.000000	83.656356 
1151.000000	83.597188 
1150.000000	83.534614 
1149.000000	83.469505 
1148.000000	83.406397 
1147.000000	83.349534 
1146.000000	83.296904 
1145.000000	83.241704 
1144.000000	83.180415 
1143.000000	83.116402 
1142.000000	83.054735 
1141.000000	82.996596 
1140.000000	82.940032 
1139.000000	82.882875 
1138.000000	82.822941 
1137.000000	82.758115 
1136.000000	82.688487 
1135.000000	82.616675 
1134.000000	82.544889 
1133.000000	82.473754 
1132.000000	82.404434 
1131.000000	82.338147 
1130.000000	82.272052 
1129.000000	82.199826 
1128.000000	82.119268 
1127.000000	82.036504 
1126.000000	81.959875 
1125.000000	81.891850 
1124.000000	81.828910 
1123.000000	81.766402 
1122.000000	81.701412 
1121.000000	81.634045 
1120.000000	81.568440 
1119.000000	81.509864 
1118.000000	81.458398 
1117.000000	81.407635 
1116.000000	81.351123 
1115.000000	81.287555 
1114.000000	81.219228 
1113.000000	81.149930 
1112.000000	81.085931 
1111.000000	81.033586 
1110.000000	80.992284 
1109.000000	80.953018 
1108.000000	80.907168 
1107.000000	80.854393 
1106.000000	80.800008 
1105.000000	80.748846 
1104.000000	80.704414 
1103.000000	80.669415 
1102.000000	80.642574 
1101.000000	80.617764 
1100.000000	80.590126 
1099.000000	80.561124 
1098.000000	80.534692 
1097.000000	80.510631 
1096.000000	80.484669 
1095.000000	80.452735 
1094.000000	80.411864 
1093.000000	80.358724 
1092.000000	80.291466 
1091.000000	80.213516 
1090.000000	80.132810 
1089.000000	80.055950 
1088.000000	79.983498 
1087.000000	79.910860 
1086.000000	79.833599 
1085.000000	79.752452 
1084.000000	79.672855 
1083.000000	79.598911 
1082.000000	79.529299 
1081.000000	79.460799 
1080.000000	79.393584 
1079.000000	79.329830 
1078.000000	79.269355 
1077.000000	79.211278 
1076.000000	79.158447 
1075.000000	79.114719 
1074.000000	79.078218 
1073.000000	79.041842 
1072.000000	78.998909 
1071.000000	78.943092 
1070.000000	78.865938 
1069.000000	78.763260 
1068.000000	78.644673 
1067.000000	78.529508 
1066.000000	78.430986 
1065.000000	78.349831 
1064.000000	78.282907 
1063.000000	78.228646 
1062.000000	78.182192 
1061.000000	78.135273 
1060.000000	78.085940 
1059.000000	78.042109 
1058.000000	78.011654 
1057.000000	77.993719 
1056.000000	77.981356 
1055.000000	77.966388 
1054.000000	77.939904 
1053.000000	77.894510 
1052.000000	77.828256 
1051.000000	77.741041 
1050.000000	77.627876 
1049.000000	77.484829 
1048.000000	77.321436 
1047.000000	77.155606 
1046.000000	76.994365 
1045.000000	76.830985 
1044.000000	76.662882 
1043.000000	76.499965 
1042.000000	76.350213 
1041.000000	76.207491 
1040.000000	76.061471 
1039.000000	75.913354 
1038.000000	75.775427 
1037.000000	75.659588 
1036.000000	75.570348 
1035.000000	75.503580 
1034.000000	75.448404 
1033.000000	75.395174 
1032.000000	75.343516 
1031.000000	75.298238 
1030.000000	75.259273 
1029.000000	75.223506 
1028.000000	75.194503 
1027.000000	75.179036 
1026.000000	75.173253 
1025.000000	75.164422 
1024.000000	75.149207 
1023.000000	75.138475 
1022.000000	75.139847 
1021.000000	75.145862 
1020.000000	75.144402 
1019.000000	75.132271 
1018.000000	75.113815 
1017.000000	75.094302 
1016.000000	75.079726 
1015.000000	75.075806 
1014.000000	75.081698 
1013.000000	75.089521 
1012.000000	75.092799 
1011.000000	75.090340 
1010.000000	75.081746 
1009.000000	75.067474 
1008.000000	75.055001 
1007.000000	75.055680 
1006.000000	75.071465 
1005.000000	75.092074 
1004.000000	75.108719 
1003.000000	75.123546 
1002.000000	75.142349 
1001.000000	75.165505 
1000.000000	75.190462 
999.000000	 75.217253 
998.000000	 75.247306 
997.000000	 75.280905 
996.000000	 75.318177 
995.000000	 75.358745 
994.000000	 75.399415 
993.000000	 75.436862 
992.000000	 75.473237 
991.000000	 75.514232 
990.000000	 75.561612 
989.000000	 75.613086 
988.000000	 75.669243 
987.000000	 75.734266 
986.000000	 75.809263 
985.000000	 75.890591 
984.000000	 75.975217 
983.000000	 76.063168 
982.000000	 76.155680 
981.000000	 76.255609 
980.000000	 76.367599 
979.000000	 76.491988 
978.000000	 76.620849 
977.000000	 76.746576 
976.000000	 76.871686 
975.000000	 77.003012 
974.000000	 77.139583 
973.000000	 77.274885 
972.000000	 77.408700 
971.000000	 77.547051 
970.000000	 77.691167 
969.000000	 77.835751 
968.000000	 77.978388 
967.000000	 78.122249 
966.000000	 78.269061 
965.000000	 78.417284 
964.000000	 78.567499 
963.000000	 78.721318 
962.000000	 78.873763 
961.000000	 79.014796 
960.000000	 79.140838 
959.000000	 79.258466 
958.000000	 79.374598 
957.000000	 79.488341 
956.000000	 79.594764 
955.000000	 79.691742 
954.000000	 79.780712 
953.000000	 79.864469 
952.000000	 79.946093 
951.000000	 80.027158 
950.000000	 80.105638 
949.000000	 80.177695 
948.000000	 80.241773 
947.000000	 80.299344 
946.000000	 80.352949 
945.000000	 80.405496 
944.000000	 80.458900 
943.000000	 80.510128 
942.000000	 80.551653 
941.000000	 80.580535 
940.000000	 80.604515 
939.000000	 80.634010 
938.000000	 80.670361 
937.000000	 80.707880 
936.000000	 80.744794 
935.000000	 80.784327 
934.000000	 80.826260 
933.000000	 80.866040 
932.000000	 80.903063 
931.000000	 80.942138 
930.000000	 80.985109 
929.000000	 81.028091 
928.000000	 81.069005 
927.000000	 81.110679 
926.000000	 81.153385 
925.000000	 81.190907 
924.000000	 81.218704 
923.000000	 81.241344 
922.000000	 81.266946 
921.000000	 81.297155 
920.000000	 81.327220 
919.000000	 81.354461 
918.000000	 81.382519 
917.000000	 81.416437 
916.000000	 81.455616 
915.000000	 81.493478 
914.000000	 81.525177 
913.000000	 81.555264 
912.000000	 81.594731 
911.000000	 81.649068 
910.000000	 81.712989 
909.000000	 81.779842 
908.000000	 81.852421 
907.000000	 81.939135 
906.000000	 82.041926 
905.000000	 82.153961 
904.000000	 82.268494 
903.000000	 82.384868 
902.000000	 82.505625 
901.000000	 82.631933 
900.000000	 82.762175 
899.000000	 82.892277 
898.000000	 83.018185 
897.000000	 83.140063 
896.000000	 83.261990 
895.000000	 83.385467 
894.000000	 83.506306 
893.000000	 83.620653 
892.000000	 83.730202 
891.000000	 83.838001 
890.000000	 83.943689 
889.000000	 84.047760 
888.000000	 84.155865 
887.000000	 84.271803 
886.000000	 84.388996 
885.000000	 84.496368 
884.000000	 84.590982 
883.000000	 84.677458 
882.000000	 84.756347 
881.000000	 84.821996 
880.000000	 84.872943 
879.000000	 84.915681 
878.000000	 84.955186 
877.000000	 84.990003 
876.000000	 85.021449 
875.000000	 85.058906 
874.000000	 85.107858 
873.000000	 85.158873 
872.000000	 85.198708 
871.000000	 85.230359 
870.000000	 85.272753 
869.000000	 85.338979 
868.000000	 85.421830 
867.000000	 85.503280 
866.000000	 85.573123 
865.000000	 85.635019 
864.000000	 85.698009 
863.000000	 85.766738 
862.000000	 85.838470 
861.000000	 85.905484 
860.000000	 85.960388 
859.000000	 86.002517 
858.000000	 86.039820 
857.000000	 86.081571 
856.000000	 86.128912 
855.000000	 86.175536 
854.000000	 86.217265 
853.000000	 86.255782 
852.000000	 86.291405 
851.000000	 86.318907 
850.000000	 86.336005 
849.000000	 86.351442 
848.000000	 86.376894 
847.000000	 86.411467 
846.000000	 86.441370 
845.000000	 86.455918 
844.000000	 86.457375 
843.000000	 86.453341 
842.000000	 86.446152 
841.000000	 86.434082 
840.000000	 86.417518 
839.000000	 86.397356 
838.000000	 86.370179 
837.000000	 86.332316 
836.000000	 86.288804 
835.000000	 86.251917 
834.000000	 86.228102 
833.000000	 86.210535 
832.000000	 86.187798 
831.000000	 86.157432 
830.000000	 86.128402 
829.000000	 86.112176 
828.000000	 86.113952 
827.000000	 86.130649 
826.000000	 86.153423 
825.000000	 86.171948 
824.000000	 86.179297 
823.000000	 86.174848 
822.000000	 86.162796 
821.000000	 86.147458 
820.000000	 86.129065 
819.000000	 86.102773 
818.000000	 86.061881 
817.000000	 86.003957 
816.000000	 85.934519 
815.000000	 85.863091 
814.000000	 85.793988 
813.000000	 85.720676 
812.000000	 85.627698 
811.000000	 85.495670 
810.000000	 85.306660 
809.000000	 85.052691 
808.000000	 84.744774 
807.000000	 84.410503 
806.000000	 84.076133 
805.000000	 83.751059 
804.000000	 83.432491 
803.000000	 83.120741 
802.000000	 82.824761 
801.000000	 82.558022 
800.000000	 82.337217 
799.000000	 82.181232 
798.000000	 82.101147 
797.000000	 82.090443 
796.000000	 82.130453 
795.000000	 82.204540 
794.000000	 82.302759 
793.000000	 82.415605 
792.000000	 82.530675 
791.000000	 82.636603 
790.000000	 82.724933 
789.000000	 82.786112 
788.000000	 82.808558 
787.000000	 82.786117 
786.000000	 82.724225 
785.000000	 82.634510 
784.000000	 82.524509 
783.000000	 82.396865 
782.000000	 82.258865 
781.000000	 82.129030 
780.000000	 82.031593 
779.000000	 81.983877 
778.000000	 81.988448 
777.000000	 82.036460 
776.000000	 82.117149 
775.000000	 82.223632 
774.000000	 82.352097 
773.000000	 82.498625 
772.000000	 82.656604 
771.000000	 82.814829 
770.000000	 82.958636 
769.000000	 83.076644 
768.000000	 83.168912 
767.000000	 83.247531 
766.000000	 83.326281 
765.000000	 83.408133 
764.000000	 83.484020 
763.000000	 83.544511 
762.000000	 83.590640 
761.000000	 83.631315 
760.000000	 83.672509 
759.000000	 83.713418 
758.000000	 83.752662 
757.000000	 83.792742 
756.000000	 83.835918 
755.000000	 83.879495 
754.000000	 83.918884 
753.000000	 83.954058 
752.000000	 83.991006 
751.000000	 84.038346 
750.000000	 84.103004 
749.000000	 84.185063 
748.000000	 84.273667 
747.000000	 84.351748 
746.000000	 84.410480 
745.000000	 84.458056 
744.000000	 84.510159 
743.000000	 84.573713 
742.000000	 84.644547 
741.000000	 84.718194 
740.000000	 84.795722 
739.000000	 84.878596 
738.000000	 84.963878 
737.000000	 85.046205 
736.000000	 85.120637 
735.000000	 85.182644 
734.000000	 85.229818 
733.000000	 85.266735 
732.000000	 85.304901 
731.000000	 85.354589 
730.000000	 85.417056 
729.000000	 85.483875 
728.000000	 85.542423 
727.000000	 85.583561 
726.000000	 85.607974 
725.000000	 85.626637 
724.000000	 85.651810 
723.000000	 85.686034 
722.000000	 85.722569 
721.000000	 85.756871 
720.000000	 85.793015 
719.000000	 85.835645 
718.000000	 85.879833 
717.000000	 85.914831 
716.000000	 85.936095 
715.000000	 85.949390 
714.000000	 85.963335 
713.000000	 85.980442 
712.000000	 85.996057 
711.000000	 86.003729 
710.000000	 86.000461 
709.000000	 85.988517 
708.000000	 85.973604 
707.000000	 85.960721 
706.000000	 85.949354 
705.000000	 85.932225 
704.000000	 85.898859 
703.000000	 85.839044 
702.000000	 85.745581 
701.000000	 85.617874 
700.000000	 85.462709 
699.000000	 85.289017 
698.000000	 85.101441 
697.000000	 84.906853 
696.000000	 84.732437 
695.000000	 84.626681 
694.000000	 84.629692 
693.000000	 84.738618 
692.000000	 84.904730 
691.000000	 85.071159 
690.000000	 85.212102 
689.000000	 85.331144 
688.000000	 85.432440 
687.000000	 85.509624 
686.000000	 85.562784 
685.000000	 85.607835 
684.000000	 85.661553 
683.000000	 85.728764 
682.000000	 85.807616 
681.000000	 85.896466 
680.000000	 85.989039 
679.000000	 86.072321 
678.000000	 86.136701 
677.000000	 86.183395 
676.000000	 86.223184 
675.000000	 86.269955 
674.000000	 86.332659 
673.000000	 86.408542 
672.000000	 86.484245 
671.000000	 86.553031 
670.000000	 86.625467 
669.000000	 86.723932 
668.000000	 86.833911 
667.000000	 86.890180 
666.000000	 86.897385 
665.000000	 86.910190 
664.000000	 86.947362 
663.000000	 87.005935 
662.000000	 87.076693 
661.000000	 87.150830 
660.000000	 87.219954 
659.000000	 87.277980 
658.000000	 87.328652 
657.000000	 87.379335 
656.000000	 87.425475 
655.000000	 87.451870 
654.000000	 87.455429 
653.000000	 87.454052 
652.000000	 87.462806 
651.000000	 87.473711 
650.000000	 87.474150 

