PE IR                   SPECTRUM    ASCII       PEDS        1.60        
  -1
~SP.SP
22/12/06
16:32:59.00
23/01/09
15:07:14.00
Administrator

650.000000
4









FRONTIER FT-IR,CPU32 MAIN 00.09.9951 07-SEPTEMBER-2011 11:49:41
MIR TGS
MIR
OPTKBR
90694
0.200000

4.000000
STRONG
RATIO
SPECTRUM
MAGNITUDE
MIRACLE ATR
DOUBLE

COMBINED


0


#HDR
-1
-1
#GR
CM-1
%T
0.00002384185791015625
0.0
4000.000000
-1.000000
3351
8
82.906505
74.419757
#DATA
4000.000000	82.891877 
3999.000000	82.889886 
3998.000000	82.886879 
3997.000000	82.883351 
3996.000000	82.879966 
3995.000000	82.876785 
3994.000000	82.873132 
3993.000000	82.868327 
3992.000000	82.862686 
3991.000000	82.857764 
3990.000000	82.855174 
3989.000000	82.855296 
3988.000000	82.857079 
3987.000000	82.858722 
3986.000000	82.858995 
3985.000000	82.857829 
3984.000000	82.855841 
3983.000000	82.853728 
3982.000000	82.852042 
3981.000000	82.851042 
3980.000000	82.850369 
3979.000000	82.848991 
3978.000000	82.845922 
3977.000000	82.841175 
3976.000000	82.835995 
3975.000000	82.831994 
3974.000000	82.829978 
3973.000000	82.829478 
3972.000000	82.829156 
3971.000000	82.827808 
3970.000000	82.825285 
3969.000000	82.822490 
3968.000000	82.820431 
3967.000000	82.819209 
3966.000000	82.817876 
3965.000000	82.815219 
3964.000000	82.810751 
3963.000000	82.805245 
3962.000000	82.800384 
3961.000000	82.797536 
3960.000000	82.796832 
3959.000000	82.797304 
3958.000000	82.797949 
3957.000000	82.798434 
3956.000000	82.798754 
3955.000000	82.798674 
3954.000000	82.797592 
3953.000000	82.794721 
3952.000000	82.789324 
3951.000000	82.781290 
3950.000000	82.771944 
3949.000000	82.763842 
3948.000000	82.758895 
3947.000000	82.756846 
3946.000000	82.755714 
3945.000000	82.753920 
3944.000000	82.751972 
3943.000000	82.751572 
3942.000000	82.753154 
3941.000000	82.755119 
3940.000000	82.755758 
3939.000000	82.754846 
3938.000000	82.753216 
3937.000000	82.751083 
3936.000000	82.747361 
3935.000000	82.741080 
3934.000000	82.732963 
3933.000000	82.725175 
3932.000000	82.719169 
3931.000000	82.714817 
3930.000000	82.712174 
3929.000000	82.712218 
3928.000000	82.714932 
3927.000000	82.717761 
3926.000000	82.717713 
3925.000000	82.714377 
3924.000000	82.709335 
3923.000000	82.703593 
3922.000000	82.696982 
3921.000000	82.689291 
3920.000000	82.680877 
3919.000000	82.672596 
3918.000000	82.666417 
3917.000000	82.665163 
3916.000000	82.670157 
3915.000000	82.679304 
3914.000000	82.688643 
3913.000000	82.695142 
3912.000000	82.697822 
3911.000000	82.696401 
3910.000000	82.691099 
3909.000000	82.683595 
3908.000000	82.676679 
3907.000000	82.671884 
3906.000000	82.667541 
3905.000000	82.660569 
3904.000000	82.649791 
3903.000000	82.637168 
3902.000000	82.626192 
3901.000000	82.619285 
3900.000000	82.616905 
3899.000000	82.617987 
3898.000000	82.620803 
3897.000000	82.623959 
3896.000000	82.627156 
3895.000000	82.630626 
3894.000000	82.634421 
3893.000000	82.637415 
3892.000000	82.637856 
3891.000000	82.634516 
3890.000000	82.628307 
3889.000000	82.622044 
3888.000000	82.617459 
3887.000000	82.614618 
3886.000000	82.613336 
3885.000000	82.612063 
3884.000000	82.608856 
3883.000000	82.604056 
3882.000000	82.600220 
3881.000000	82.599800 
3880.000000	82.602210 
3879.000000	82.604321 
3878.000000	82.604672 
3877.000000	82.603777 
3876.000000	82.601584 
3875.000000	82.597478 
3874.000000	82.591756 
3873.000000	82.585807 
3872.000000	82.580980 
3871.000000	82.578452 
3870.000000	82.578860 
3869.000000	82.580611 
3868.000000	82.581236 
3867.000000	82.580195 
3866.000000	82.579304 
3865.000000	82.580465 
3864.000000	82.583016 
3863.000000	82.584400 
3862.000000	82.583728 
3861.000000	82.582071 
3860.000000	82.580501 
3859.000000	82.579248 
3858.000000	82.578454 
3857.000000	82.578543 
3856.000000	82.579441 
3855.000000	82.580496 
3854.000000	82.581055 
3853.000000	82.580242 
3852.000000	82.578028 
3851.000000	82.575687 
3850.000000	82.574207 
3849.000000	82.573616 
3848.000000	82.573376 
3847.000000	82.572832 
3846.000000	82.571742 
3845.000000	82.570284 
3844.000000	82.568724 
3843.000000	82.567224 
3842.000000	82.565926 
3841.000000	82.564998 
3840.000000	82.564535 
3839.000000	82.564309 
3838.000000	82.563945 
3837.000000	82.563359 
3836.000000	82.562769 
3835.000000	82.562338 
3834.000000	82.562026 
3833.000000	82.561726 
3832.000000	82.561382 
3831.000000	82.560998 
3830.000000	82.560588 
3829.000000	82.560141 
3828.000000	82.559636 
3827.000000	82.559058 
3826.000000	82.558404 
3825.000000	82.557683 
3824.000000	82.556908 
3823.000000	82.556089 
3822.000000	82.555225 
3821.000000	82.554315 
3820.000000	82.553364 
3819.000000	82.552383 
3818.000000	82.551386 
3817.000000	82.550372 
3816.000000	82.549322 
3815.000000	82.548197 
3814.000000	82.546969 
3813.000000	82.545660 
3812.000000	82.544324 
3811.000000	82.543010 
3810.000000	82.541742 
3809.000000	82.540510 
3808.000000	82.539277 
3807.000000	82.537997 
3806.000000	82.536656 
3805.000000	82.535325 
3804.000000	82.534115 
3803.000000	82.533087 
3802.000000	82.532185 
3801.000000	82.531192 
3800.000000	82.529913 
3799.000000	82.528417 
3798.000000	82.527036 
3797.000000	82.526043 
3796.000000	82.525361 
3795.000000	82.524459 
3794.000000	82.522905 
3793.000000	82.520790 
3792.000000	82.518578 
3791.000000	82.516521 
3790.000000	82.514390 
3789.000000	82.511818 
3788.000000	82.508714 
3787.000000	82.505327 
3786.000000	82.502065 
3785.000000	82.499275 
3784.000000	82.497027 
3783.000000	82.495142 
3782.000000	82.493422 
3781.000000	82.491826 
3780.000000	82.490352 
3779.000000	82.488752 
3778.000000	82.486749 
3777.000000	82.484275 
3776.000000	82.481483 
3775.000000	82.478600 
3774.000000	82.475820 
3773.000000	82.473229 
3772.000000	82.470793 
3771.000000	82.468403 
3770.000000	82.465892 
3769.000000	82.463113 
3768.000000	82.460082 
3767.000000	82.456960 
3766.000000	82.453879 
3765.000000	82.450872 
3764.000000	82.447913 
3763.000000	82.444943 
3762.000000	82.441895 
3761.000000	82.438714 
3760.000000	82.435368 
3759.000000	82.431868 
3758.000000	82.428285 
3757.000000	82.424701 
3756.000000	82.421122 
3755.000000	82.417502 
3754.000000	82.413830 
3753.000000	82.410152 
3752.000000	82.406501 
3751.000000	82.402841 
3750.000000	82.399103 
3749.000000	82.395249 
3748.000000	82.391313 
3747.000000	82.387355 
3746.000000	82.383397 
3745.000000	82.379448 
3744.000000	82.375466 
3743.000000	82.371318 
3742.000000	82.366950 
3741.000000	82.362457 
3740.000000	82.357993 
3739.000000	82.353580 
3738.000000	82.348958 
3737.000000	82.343790 
3736.000000	82.338183 
3735.000000	82.332862 
3734.000000	82.328369 
3733.000000	82.324722 
3732.000000	82.321438 
3731.000000	82.317914 
3730.000000	82.313704 
3729.000000	82.308510 
3728.000000	82.302249 
3727.000000	82.295305 
3726.000000	82.288427 
3725.000000	82.282207 
3724.000000	82.276769 
3723.000000	82.271732 
3722.000000	82.266487 
3721.000000	82.260756 
3720.000000	82.254840 
3719.000000	82.248958 
3718.000000	82.242689 
3717.000000	82.235364 
3716.000000	82.226778 
3715.000000	82.217643 
3714.000000	82.209403 
3713.000000	82.203445 
3712.000000	82.199794 
3711.000000	82.196571 
3710.000000	82.191718 
3709.000000	82.184479 
3708.000000	82.175082 
3707.000000	82.164293 
3706.000000	82.153171 
3705.000000	82.142652 
3704.000000	82.133208 
3703.000000	82.124871 
3702.000000	82.117308 
3701.000000	82.109930 
3700.000000	82.102381 
3699.000000	82.094644 
3698.000000	82.086729 
3697.000000	82.078578 
3696.000000	82.069681 
3695.000000	82.058916 
3694.000000	82.045718 
3693.000000	82.031020 
3692.000000	82.016673 
3691.000000	82.004044 
3690.000000	81.993299 
3689.000000	81.983877 
3688.000000	81.975195 
3687.000000	81.967520 
3686.000000	81.961821 
3685.000000	81.958759 
3684.000000	81.958168 
3683.000000	81.958419 
3682.000000	81.955631 
3681.000000	81.946030 
3680.000000	81.929311 
3679.000000	81.909135 
3678.000000	81.889916 
3677.000000	81.875505 
3676.000000	81.869414 
3675.000000	81.868285 
3674.000000	81.863990 
3673.000000	81.855238 
3672.000000	81.846108 
3671.000000	81.840701 
3670.000000	81.839562 
3669.000000	81.837364 
3668.000000	81.831022 
3667.000000	81.823613 
3666.000000	81.818095 
3665.000000	81.814288 
3664.000000	81.810807 
3663.000000	81.806890 
3662.000000	81.801959 
3661.000000	81.795248 
3660.000000	81.786511 
3659.000000	81.776819 
3658.000000	81.767773 
3657.000000	81.760852 
3656.000000	81.755605 
3655.000000	81.749752 
3654.000000	81.742868 
3653.000000	81.736064 
3652.000000	81.729280 
3651.000000	81.721858 
3650.000000	81.714270 
3649.000000	81.708450 
3648.000000	81.707488 
3647.000000	81.712442 
3646.000000	81.721294 
3645.000000	81.732063 
3644.000000	81.744142 
3643.000000	81.756305 
3642.000000	81.765202 
3641.000000	81.767189 
3640.000000	81.761982 
3639.000000	81.754479 
3638.000000	81.750986 
3637.000000	81.753486 
3636.000000	81.758248 
3635.000000	81.760234 
3634.000000	81.757842 
3633.000000	81.752879 
3632.000000	81.747252 
3631.000000	81.739328 
3630.000000	81.729251 
3629.000000	81.721880 
3628.000000	81.717341 
3627.000000	81.714206 
3626.000000	81.714980 
3625.000000	81.719522 
3624.000000	81.723342 
3623.000000	81.721860 
3622.000000	81.714386 
3621.000000	81.705089 
3620.000000	81.699875 
3619.000000	81.700831 
3618.000000	81.705423 
3617.000000	81.711633 
3616.000000	81.718822 
3615.000000	81.725669 
3614.000000	81.731180 
3613.000000	81.735332 
3612.000000	81.738005 
3611.000000	81.739113 
3610.000000	81.740145 
3609.000000	81.743896 
3608.000000	81.751283 
3607.000000	81.759836 
3606.000000	81.767126 
3605.000000	81.773646 
3604.000000	81.781004 
3603.000000	81.789370 
3602.000000	81.797029 
3601.000000	81.802277 
3600.000000	81.804773 
3599.000000	81.805343 
3598.000000	81.805128 
3597.000000	81.804908 
3596.000000	81.804932 
3595.000000	81.805683 
3594.000000	81.807840 
3593.000000	81.811309 
3592.000000	81.815195 
3591.000000	81.817660 
3590.000000	81.816131 
3589.000000	81.809626 
3588.000000	81.801584 
3587.000000	81.797445 
3586.000000	81.799609 
3585.000000	81.806767 
3584.000000	81.815566 
3583.000000	81.822450 
3582.000000	81.825566 
3581.000000	81.825721 
3580.000000	81.825257 
3579.000000	81.825909 
3578.000000	81.828077 
3577.000000	81.831591 
3576.000000	81.836514 
3575.000000	81.842695 
3574.000000	81.848931 
3573.000000	81.852988 
3572.000000	81.852790 
3571.000000	81.847167 
3570.000000	81.835405 
3569.000000	81.817910 
3568.000000	81.798964 
3567.000000	81.786133 
3566.000000	81.784276 
3565.000000	81.792697 
3564.000000	81.806959 
3563.000000	81.821609 
3562.000000	81.832688 
3561.000000	81.839141 
3560.000000	81.842438 
3559.000000	81.844709 
3558.000000	81.847083 
3557.000000	81.849416 
3556.000000	81.851032 
3555.000000	81.851588 
3554.000000	81.851480 
3553.000000	81.851574 
3552.000000	81.852197 
3551.000000	81.852465 
3550.000000	81.850709 
3549.000000	81.845387 
3548.000000	81.836218 
3547.000000	81.825452 
3546.000000	81.817725 
3545.000000	81.817206 
3544.000000	81.824623 
3543.000000	81.836935 
3542.000000	81.849657 
3541.000000	81.859589 
3540.000000	81.865450 
3539.000000	81.867159 
3538.000000	81.865645 
3537.000000	81.863303 
3536.000000	81.863108 
3535.000000	81.866560 
3534.000000	81.872662 
3533.000000	81.879031 
3532.000000	81.883706 
3531.000000	81.885893 
3530.000000	81.885739 
3529.000000	81.883860 
3528.000000	81.880876 
3527.000000	81.876966 
3526.000000	81.872135 
3525.000000	81.867210 
3524.000000	81.864246 
3523.000000	81.865075 
3522.000000	81.869473 
3521.000000	81.875450 
3520.000000	81.881090 
3519.000000	81.885774 
3518.000000	81.889748 
3517.000000	81.893031 
3516.000000	81.895170 
3515.000000	81.895899 
3514.000000	81.895537 
3513.000000	81.894685 
3512.000000	81.894013 
3511.000000	81.894434 
3510.000000	81.896861 
3509.000000	81.901295 
3508.000000	81.906326 
3507.000000	81.909987 
3506.000000	81.911174 
3505.000000	81.910156 
3504.000000	81.908191 
3503.000000	81.906746 
3502.000000	81.906905 
3501.000000	81.909008 
3500.000000	81.912477 
3499.000000	81.916016 
3498.000000	81.918357 
3497.000000	81.919233 
3496.000000	81.919586 
3495.000000	81.920728 
3494.000000	81.923323 
3493.000000	81.927090 
3492.000000	81.931232 
3491.000000	81.935030 
3490.000000	81.938058 
3489.000000	81.939997 
3488.000000	81.940666 
3487.000000	81.940357 
3486.000000	81.939945 
3485.000000	81.940379 
3484.000000	81.941902 
3483.000000	81.943883 
3482.000000	81.945476 
3481.000000	81.946457 
3480.000000	81.947308 
3479.000000	81.948520 
3478.000000	81.950003 
3477.000000	81.951238 
3476.000000	81.951973 
3475.000000	81.952622 
3474.000000	81.953858 
3473.000000	81.955856 
3472.000000	81.958113 
3471.000000	81.959946 
3470.000000	81.961063 
3469.000000	81.961585 
3468.000000	81.961834 
3467.000000	81.962284 
3466.000000	81.963493 
3465.000000	81.965734 
3464.000000	81.968583 
3463.000000	81.971039 
3462.000000	81.972388 
3461.000000	81.972817 
3460.000000	81.973126 
3459.000000	81.973927 
3458.000000	81.975207 
3457.000000	81.976642 
3456.000000	81.978105 
3455.000000	81.979752 
3454.000000	81.981743 
3453.000000	81.984132 
3452.000000	81.986950 
3451.000000	81.990059 
3450.000000	81.992870 
3449.000000	81.994602 
3448.000000	81.995123 
3447.000000	81.995370 
3446.000000	81.996516 
3445.000000	81.998653 
3444.000000	82.000736 
3443.000000	82.001911 
3442.000000	82.002509 
3441.000000	82.003454 
3440.000000	82.004818 
3439.000000	82.005666 
3438.000000	82.005377 
3437.000000	82.004671 
3436.000000	82.004989 
3435.000000	82.006959 
3434.000000	82.009757 
3433.000000	82.011819 
3432.000000	82.012200 
3431.000000	82.011203 
3430.000000	82.009965 
3429.000000	82.009548 
3428.000000	82.010380 
3427.000000	82.012339 
3426.000000	82.015059 
3425.000000	82.018083 
3424.000000	82.020893 
3423.000000	82.023042 
3422.000000	82.024332 
3421.000000	82.024858 
3420.000000	82.025032 
3419.000000	82.025673 
3418.000000	82.027670 
3417.000000	82.031057 
3416.000000	82.034624 
3415.000000	82.037016 
3414.000000	82.038215 
3413.000000	82.039333 
3412.000000	82.040751 
3411.000000	82.041206 
3410.000000	82.039367 
3409.000000	82.035698 
3408.000000	82.032189 
3407.000000	82.030397 
3406.000000	82.030276 
3405.000000	82.030684 
3404.000000	82.030369 
3403.000000	82.028624 
3402.000000	82.025715 
3401.000000	82.022875 
3400.000000	82.021484 
3399.000000	82.022056 
3398.000000	82.024152 
3397.000000	82.027003 
3396.000000	82.029674 
3395.000000	82.030817 
3394.000000	82.029266 
3393.000000	82.025476 
3392.000000	82.022000 
3391.000000	82.021493 
3390.000000	82.024449 
3389.000000	82.029219 
3388.000000	82.033735 
3387.000000	82.037081 
3386.000000	82.039242 
3385.000000	82.040144 
3384.000000	82.039593 
3383.000000	82.037903 
3382.000000	82.036062 
3381.000000	82.035002 
3380.000000	82.034863 
3379.000000	82.035050 
3378.000000	82.034913 
3377.000000	82.034326 
3376.000000	82.033730 
3375.000000	82.033662 
3374.000000	82.034214 
3373.000000	82.034876 
3372.000000	82.034936 
3371.000000	82.034099 
3370.000000	82.032735 
3369.000000	82.031562 
3368.000000	82.031023 
3367.000000	82.030940 
3366.000000	82.030680 
3365.000000	82.029731 
3364.000000	82.028169 
3363.000000	82.026623 
3362.000000	82.025627 
3361.000000	82.025054 
3360.000000	82.024268 
3359.000000	82.022900 
3358.000000	82.021346 
3357.000000	82.020345 
3356.000000	82.020082 
3355.000000	82.019845 
3354.000000	82.018638 
3353.000000	82.016096 
3352.000000	82.012846 
3351.000000	82.010115 
3350.000000	82.008864 
3349.000000	82.009290 
3348.000000	82.010788 
3347.000000	82.012148 
3346.000000	82.012247 
3345.000000	82.010678 
3344.000000	82.007875 
3343.000000	82.004647 
3342.000000	82.001476 
3341.000000	81.998391 
3340.000000	81.995354 
3339.000000	81.992462 
3338.000000	81.989777 
3337.000000	81.987261 
3336.000000	81.985120 
3335.000000	81.983934 
3334.000000	81.984010 
3333.000000	81.984605 
3332.000000	81.984229 
3331.000000	81.981997 
3330.000000	81.978371 
3329.000000	81.974510 
3328.000000	81.971025 
3327.000000	81.967824 
3326.000000	81.964945 
3325.000000	81.962893 
3324.000000	81.961955 
3323.000000	81.961472 
3322.000000	81.960148 
3321.000000	81.957124 
3320.000000	81.952598 
3319.000000	81.947485 
3318.000000	81.942679 
3317.000000	81.938625 
3316.000000	81.935284 
3315.000000	81.932159 
3314.000000	81.928456 
3313.000000	81.923656 
3312.000000	81.918126 
3311.000000	81.912992 
3310.000000	81.909086 
3309.000000	81.906096 
3308.000000	81.902991 
3307.000000	81.899154 
3306.000000	81.894867 
3305.000000	81.890765 
3304.000000	81.887244 
3303.000000	81.884467 
3302.000000	81.882509 
3301.000000	81.881118 
3300.000000	81.879446 
3299.000000	81.876438 
3298.000000	81.871664 
3297.000000	81.865640 
3296.000000	81.859393 
3295.000000	81.853662 
3294.000000	81.848560 
3293.000000	81.843912 
3292.000000	81.839759 
3291.000000	81.836378 
3290.000000	81.833712 
3289.000000	81.830923 
3288.000000	81.826887 
3287.000000	81.821277 
3286.000000	81.815037 
3285.000000	81.809660 
3284.000000	81.805906 
3283.000000	81.803453 
3282.000000	81.801486 
3281.000000	81.799343 
3280.000000	81.796514 
3279.000000	81.792460 
3278.000000	81.786852 
3277.000000	81.780006 
3276.000000	81.772890 
3275.000000	81.766526 
3274.000000	81.761423 
3273.000000	81.757504 
3272.000000	81.754326 
3271.000000	81.751355 
3270.000000	81.748311 
3269.000000	81.745502 
3268.000000	81.743672 
3267.000000	81.743133 
3266.000000	81.742931 
3265.000000	81.741233 
3264.000000	81.736939 
3263.000000	81.730768 
3262.000000	81.724629 
3261.000000	81.719657 
3260.000000	81.715262 
3259.000000	81.710366 
3258.000000	81.705034 
3257.000000	81.700378 
3256.000000	81.696941 
3255.000000	81.693841 
3254.000000	81.689832 
3253.000000	81.684844 
3252.000000	81.680005 
3251.000000	81.676241 
3250.000000	81.673324 
3249.000000	81.670384 
3248.000000	81.666932 
3247.000000	81.663021 
3246.000000	81.658730 
3245.000000	81.654052 
3244.000000	81.649261 
3243.000000	81.644744 
3242.000000	81.640202 
3241.000000	81.634591 
3240.000000	81.627419 
3239.000000	81.619876 
3238.000000	81.614041 
3237.000000	81.610772 
3236.000000	81.608855 
3235.000000	81.606226 
3234.000000	81.601999 
3233.000000	81.596848 
3232.000000	81.591810 
3231.000000	81.587283 
3230.000000	81.583165 
3229.000000	81.579430 
3228.000000	81.576245 
3227.000000	81.573689 
3226.000000	81.571537 
3225.000000	81.569289 
3224.000000	81.566465 
3223.000000	81.563022 
3222.000000	81.559428 
3221.000000	81.556150 
3220.000000	81.552978 
3219.000000	81.549071 
3218.000000	81.543925 
3217.000000	81.538140 
3216.000000	81.532988 
3215.000000	81.529179 
3214.000000	81.526315 
3213.000000	81.523513 
3212.000000	81.520307 
3211.000000	81.516735 
3210.000000	81.512850 
3209.000000	81.508638 
3208.000000	81.504323 
3207.000000	81.500274 
3206.000000	81.496470 
3205.000000	81.492449 
3204.000000	81.487947 
3203.000000	81.483345 
3202.000000	81.479287 
3201.000000	81.475998 
3200.000000	81.473185 
3199.000000	81.470423 
3198.000000	81.467465 
3197.000000	81.464264 
3196.000000	81.460907 
3195.000000	81.457585 
3194.000000	81.454472 
3193.000000	81.451558 
3192.000000	81.448611 
3191.000000	81.445326 
3190.000000	81.441555 
3189.000000	81.437380 
3188.000000	81.433104 
3187.000000	81.429141 
3186.000000	81.425763 
3185.000000	81.422923 
3184.000000	81.420228 
3183.000000	81.417213 
3182.000000	81.413719 
3181.000000	81.410012 
3180.000000	81.406552 
3179.000000	81.403533 
3178.000000	81.400732 
3177.000000	81.397859 
3176.000000	81.394993 
3175.000000	81.392375 
3174.000000	81.389828 
3173.000000	81.386771 
3172.000000	81.382970 
3171.000000	81.378901 
3170.000000	81.375096 
3169.000000	81.371481 
3168.000000	81.367832 
3167.000000	81.364552 
3166.000000	81.362302 
3165.000000	81.360867 
3164.000000	81.358991 
3163.000000	81.355703 
3162.000000	81.351290 
3161.000000	81.346836 
3160.000000	81.342993 
3159.000000	81.339541 
3158.000000	81.335939 
3157.000000	81.331889 
3156.000000	81.327531 
3155.000000	81.323456 
3154.000000	81.320392 
3153.000000	81.318612 
3152.000000	81.317670 
3151.000000	81.316839 
3150.000000	81.315795 
3149.000000	81.314684 
3148.000000	81.313514 
3147.000000	81.311816 
3146.000000	81.309024 
3145.000000	81.305103 
3144.000000	81.300736 
3143.000000	81.296818 
3142.000000	81.293696 
3141.000000	81.291103 
3140.000000	81.288835 
3139.000000	81.287121 
3138.000000	81.286113 
3137.000000	81.285301 
3136.000000	81.283851 
3135.000000	81.281479 
3134.000000	81.278652 
3133.000000	81.275991 
3132.000000	81.273748 
3131.000000	81.271850 
3130.000000	81.270195 
3129.000000	81.268744 
3128.000000	81.267496 
3127.000000	81.266428 
3126.000000	81.265344 
3125.000000	81.263861 
3124.000000	81.261716 
3123.000000	81.259096 
3122.000000	81.256501 
3121.000000	81.254243 
3120.000000	81.252232 
3119.000000	81.250276 
3118.000000	81.248413 
3117.000000	81.246853 
3116.000000	81.245686 
3115.000000	81.244779 
3114.000000	81.243844 
3113.000000	81.242559 
3112.000000	81.240753 
3111.000000	81.238542 
3110.000000	81.236359 
3109.000000	81.234680 
3108.000000	81.233683 
3107.000000	81.233124 
3106.000000	81.232465 
3105.000000	81.231309 
3104.000000	81.229620 
3103.000000	81.227609 
3102.000000	81.225511 
3101.000000	81.223470 
3100.000000	81.221650 
3099.000000	81.220270 
3098.000000	81.219376 
3097.000000	81.218685 
3096.000000	81.217759 
3095.000000	81.216327 
3094.000000	81.214283 
3093.000000	81.211541 
3092.000000	81.208218 
3091.000000	81.204955 
3090.000000	81.202627 
3089.000000	81.201517 
3088.000000	81.201045 
3087.000000	81.200476 
3086.000000	81.199691 
3085.000000	81.198926 
3084.000000	81.198114 
3083.000000	81.196842 
3082.000000	81.194802 
3081.000000	81.192069 
3080.000000	81.189100 
3079.000000	81.186717 
3078.000000	81.185819 
3077.000000	81.186705 
3076.000000	81.188664 
3075.000000	81.190438 
3074.000000	81.191033 
3073.000000	81.190077 
3072.000000	81.187899 
3071.000000	81.185506 
3070.000000	81.183924 
3069.000000	81.182983 
3068.000000	81.181143 
3067.000000	81.177234 
3066.000000	81.172227 
3065.000000	81.168811 
3064.000000	81.169238 
3063.000000	81.173595 
3062.000000	81.179249 
3061.000000	81.181832 
3060.000000	81.178231 
3059.000000	81.169638 
3058.000000	81.161099 
3057.000000	81.156712 
3056.000000	81.155998 
3055.000000	81.156224 
3054.000000	81.156847 
3053.000000	81.159357 
3052.000000	81.163133 
3051.000000	81.164218 
3050.000000	81.159436 
3049.000000	81.150228 
3048.000000	81.141388 
3047.000000	81.136382 
3046.000000	81.134657 
3045.000000	81.133095 
3044.000000	81.129263 
3043.000000	81.123329 
3042.000000	81.117423 
3041.000000	81.113434 
3040.000000	81.111290 
3039.000000	81.109092 
3038.000000	81.104739 
3037.000000	81.097746 
3036.000000	81.089907 
3035.000000	81.083917 
3034.000000	81.080768 
3033.000000	81.078679 
3032.000000	81.075340 
3031.000000	81.070702 
3030.000000	81.066189 
3029.000000	81.061471 
3028.000000	81.054069 
3027.000000	81.042621 
3026.000000	81.028698 
3025.000000	81.014375 
3024.000000	80.999489 
3023.000000	80.982711 
3022.000000	80.964373 
3021.000000	80.946662 
3020.000000	80.931422 
3019.000000	80.918817 
3018.000000	80.907765 
3017.000000	80.896481 
3016.000000	80.882874 
3015.000000	80.865840 
3014.000000	80.846768 
3013.000000	80.829088 
3012.000000	80.815423 
3011.000000	80.804866 
3010.000000	80.793360 
3009.000000	80.777498 
3008.000000	80.758320 
3007.000000	80.740704 
3006.000000	80.728300 
3005.000000	80.719609 
3004.000000	80.709757 
3003.000000	80.695454 
3002.000000	80.677246 
3001.000000	80.658063 
3000.000000	80.641519 
2999.000000	80.631078 
2998.000000	80.628155 
2997.000000	80.630173 
2996.000000	80.631939 
2995.000000	80.629442 
2994.000000	80.621336 
2993.000000	80.607677 
2992.000000	80.590225 
2991.000000	80.574254 
2990.000000	80.566905 
2989.000000	80.572125 
2988.000000	80.589118 
2987.000000	80.616332 
2986.000000	80.653862 
2985.000000	80.699970 
2984.000000	80.748084 
2983.000000	80.790724 
2982.000000	80.825441 
2981.000000	80.854663 
2980.000000	80.880797 
2979.000000	80.903544 
2978.000000	80.921037 
2977.000000	80.931441 
2976.000000	80.934244 
2975.000000	80.932078 
2974.000000	80.930236 
2973.000000	80.931547 
2972.000000	80.931651 
2971.000000	80.921980 
2970.000000	80.898150 
2969.000000	80.864288 
2968.000000	80.829286 
2967.000000	80.800125 
2966.000000	80.778646 
2965.000000	80.762713 
2964.000000	80.748975 
2963.000000	80.735260 
2962.000000	80.721468 
2961.000000	80.708766 
2960.000000	80.698544 
2959.000000	80.692237 
2958.000000	80.691048 
2957.000000	80.694771 
2956.000000	80.701399 
2955.000000	80.708818 
2954.000000	80.716557 
2953.000000	80.725217 
2952.000000	80.734825 
2951.000000	80.744517 
2950.000000	80.753094 
2949.000000	80.759044 
2948.000000	80.760860 
2947.000000	80.758675 
2946.000000	80.755278 
2945.000000	80.754463 
2944.000000	80.758424 
2943.000000	80.767079 
2942.000000	80.779025 
2941.000000	80.792251 
2940.000000	80.804659 
2939.000000	80.815347 
2938.000000	80.825153 
2937.000000	80.835080 
2936.000000	80.844713 
2935.000000	80.852905 
2934.000000	80.859148 
2933.000000	80.863037 
2932.000000	80.863124 
2931.000000	80.857959 
2930.000000	80.848173 
2929.000000	80.836187 
2928.000000	80.823891 
2927.000000	80.811862 
2926.000000	80.800938 
2925.000000	80.793072 
2924.000000	80.789670 
2923.000000	80.789468 
2922.000000	80.788942 
2921.000000	80.785297 
2920.000000	80.778958 
2919.000000	80.772637 
2918.000000	80.767638 
2917.000000	80.761656 
2916.000000	80.751019 
2915.000000	80.734828 
2914.000000	80.716231 
2913.000000	80.700107 
2912.000000	80.690255 
2911.000000	80.687803 
2910.000000	80.690140 
2909.000000	80.691373 
2908.000000	80.686612 
2907.000000	80.676758 
2906.000000	80.667143 
2905.000000	80.660521 
2904.000000	80.654223 
2903.000000	80.646249 
2902.000000	80.641105 
2901.000000	80.646319 
2900.000000	80.663366 
2899.000000	80.684854 
2898.000000	80.701048 
2897.000000	80.708071 
2896.000000	80.709326 
2895.000000	80.710770 
2894.000000	80.715402 
2893.000000	80.720966 
2892.000000	80.722662 
2891.000000	80.718697 
2890.000000	80.712905 
2889.000000	80.710915 
2888.000000	80.714247 
2887.000000	80.719535 
2886.000000	80.723303 
2885.000000	80.725799 
2884.000000	80.729543 
2883.000000	80.735769 
2882.000000	80.743503 
2881.000000	80.751352 
2880.000000	80.759023 
2879.000000	80.767251 
2878.000000	80.776774 
2877.000000	80.787153 
2876.000000	80.796187 
2875.000000	80.800900 
2874.000000	80.799807 
2873.000000	80.794482 
2872.000000	80.788878 
2871.000000	80.786720 
2870.000000	80.789277 
2869.000000	80.795086 
2868.000000	80.801569 
2867.000000	80.807248 
2866.000000	80.812686 
2865.000000	80.819155 
2864.000000	80.826594 
2863.000000	80.833424 
2862.000000	80.838530 
2861.000000	80.842689 
2860.000000	80.847400 
2859.000000	80.852650 
2858.000000	80.856708 
2857.000000	80.858393 
2856.000000	80.858659 
2855.000000	80.859401 
2854.000000	80.861429 
2853.000000	80.864507 
2852.000000	80.868966 
2851.000000	80.875538 
2850.000000	80.883125 
2849.000000	80.888488 
2848.000000	80.889589 
2847.000000	80.888136 
2846.000000	80.887535 
2845.000000	80.888834 
2844.000000	80.890319 
2843.000000	80.890817 
2842.000000	80.891365 
2841.000000	80.893237 
2840.000000	80.896059 
2839.000000	80.898796 
2838.000000	80.901336 
2837.000000	80.903925 
2836.000000	80.905963 
2835.000000	80.906635 
2834.000000	80.906227 
2833.000000	80.905717 
2832.000000	80.905258 
2831.000000	80.904042 
2830.000000	80.901716 
2829.000000	80.899269 
2828.000000	80.898343 
2827.000000	80.899865 
2826.000000	80.903349 
2825.000000	80.907245 
2824.000000	80.909981 
2823.000000	80.910894 
2822.000000	80.910205 
2821.000000	80.908476 
2820.000000	80.906386 
2819.000000	80.904802 
2818.000000	80.904389 
2817.000000	80.905028 
2816.000000	80.906072 
2815.000000	80.907228 
2814.000000	80.908665 
2813.000000	80.910248 
2812.000000	80.911309 
2811.000000	80.911399 
2810.000000	80.910680 
2809.000000	80.909350 
2808.000000	80.907308 
2807.000000	80.904660 
2806.000000	80.902063 
2805.000000	80.900205 
2804.000000	80.899224 
2803.000000	80.898889 
2802.000000	80.898877 
2801.000000	80.898718 
2800.000000	80.897976 
2799.000000	80.896867 
2798.000000	80.896287 
2797.000000	80.896829 
2796.000000	80.897998 
2795.000000	80.898620 
2794.000000	80.897934 
2793.000000	80.896066 
2792.000000	80.893802 
2791.000000	80.892173 
2790.000000	80.891861 
2789.000000	80.892802 
2788.000000	80.894234 
2787.000000	80.895370 
2786.000000	80.896069 
2785.000000	80.896625 
2784.000000	80.897116 
2783.000000	80.897245 
2782.000000	80.896764 
2781.000000	80.895852 
2780.000000	80.895014 
2779.000000	80.894645 
2778.000000	80.894677 
2777.000000	80.894663 
2776.000000	80.894239 
2775.000000	80.893477 
2774.000000	80.892732 
2773.000000	80.892230 
2772.000000	80.891904 
2771.000000	80.891592 
2770.000000	80.891231 
2769.000000	80.890875 
2768.000000	80.890622 
2767.000000	80.890552 
2766.000000	80.890648 
2765.000000	80.890785 
2764.000000	80.890823 
2763.000000	80.890744 
2762.000000	80.890644 
2761.000000	80.890610 
2760.000000	80.890631 
2759.000000	80.890628 
2758.000000	80.890571 
2757.000000	80.890503 
2756.000000	80.890479 
2755.000000	80.890504 
2754.000000	80.890534 
2753.000000	80.890522 
2752.000000	80.890457 
2751.000000	80.890377 
2750.000000	80.890355 
2749.000000	80.890427 
2748.000000	80.890584 
2747.000000	80.890786 
2746.000000	80.890980 
2745.000000	80.891115 
2744.000000	80.891139 
2743.000000	80.891034 
2742.000000	80.890853 
2741.000000	80.890678 
2740.000000	80.890565 
2739.000000	80.890552 
2738.000000	80.890672 
2737.000000	80.890906 
2736.000000	80.891163 
2735.000000	80.891382 
2734.000000	80.891639 
2733.000000	80.892015 
2732.000000	80.892396 
2731.000000	80.892560 
2730.000000	80.892443 
2729.000000	80.892157 
2728.000000	80.891753 
2727.000000	80.891237 
2726.000000	80.890883 
2725.000000	80.891176 
2724.000000	80.892256 
2723.000000	80.893577 
2722.000000	80.894325 
2721.000000	80.894015 
2720.000000	80.892671 
2719.000000	80.890730 
2718.000000	80.888828 
2717.000000	80.887461 
2716.000000	80.886677 
2715.000000	80.886289 
2714.000000	80.886367 
2713.000000	80.887150 
2712.000000	80.888455 
2711.000000	80.889617 
2710.000000	80.890179 
2709.000000	80.890280 
2708.000000	80.890140 
2707.000000	80.889648 
2706.000000	80.888755 
2705.000000	80.887739 
2704.000000	80.886698 
2703.000000	80.885222 
2702.000000	80.883021 
2701.000000	80.880576 
2700.000000	80.878698 
2699.000000	80.877556 
2698.000000	80.876588 
2697.000000	80.875386 
2696.000000	80.874287 
2695.000000	80.873790 
2694.000000	80.873579 
2693.000000	80.872564 
2692.000000	80.870081 
2691.000000	80.866812 
2690.000000	80.864252 
2689.000000	80.863286 
2688.000000	80.863622 
2687.000000	80.864520 
2686.000000	80.865677 
2685.000000	80.867104 
2684.000000	80.868463 
2683.000000	80.869069 
2682.000000	80.868692 
2681.000000	80.867993 
2680.000000	80.867764 
2679.000000	80.867785 
2678.000000	80.866927 
2677.000000	80.864657 
2676.000000	80.862049 
2675.000000	80.860769 
2674.000000	80.861145 
2673.000000	80.861990 
2672.000000	80.862303 
2671.000000	80.862465 
2670.000000	80.863114 
2669.000000	80.863686 
2668.000000	80.863037 
2667.000000	80.861160 
2666.000000	80.859379 
2665.000000	80.858792 
2664.000000	80.859290 
2663.000000	80.860230 
2662.000000	80.861277 
2661.000000	80.862256 
2660.000000	80.862842 
2659.000000	80.862894 
2658.000000	80.862735 
2657.000000	80.862671 
2656.000000	80.862445 
2655.000000	80.861600 
2654.000000	80.860155 
2653.000000	80.858572 
2652.000000	80.857270 
2651.000000	80.856367 
2650.000000	80.855687 
2649.000000	80.854956 
2648.000000	80.854145 
2647.000000	80.853584 
2646.000000	80.853536 
2645.000000	80.853778 
2644.000000	80.853785 
2643.000000	80.853307 
2642.000000	80.852536 
2641.000000	80.851767 
2640.000000	80.851073 
2639.000000	80.850397 
2638.000000	80.849760 
2637.000000	80.849143 
2636.000000	80.848389 
2635.000000	80.847445 
2634.000000	80.846580 
2633.000000	80.846114 
2632.000000	80.846035 
2631.000000	80.846062 
2630.000000	80.845989 
2629.000000	80.845785 
2628.000000	80.845442 
2627.000000	80.844967 
2626.000000	80.844489 
2625.000000	80.844179 
2624.000000	80.843999 
2623.000000	80.843696 
2622.000000	80.843103 
2621.000000	80.842377 
2620.000000	80.841895 
2619.000000	80.841931 
2618.000000	80.842458 
2617.000000	80.843073 
2616.000000	80.843225 
2615.000000	80.842648 
2614.000000	80.841556 
2613.000000	80.840522 
2612.000000	80.839934 
2611.000000	80.839721 
2610.000000	80.839609 
2609.000000	80.839520 
2608.000000	80.839588 
2607.000000	80.839759 
2606.000000	80.839600 
2605.000000	80.838695 
2604.000000	80.837150 
2603.000000	80.835558 
2602.000000	80.834387 
2601.000000	80.833688 
2600.000000	80.833508 
2599.000000	80.834195 
2598.000000	80.835917 
2597.000000	80.838054 
2596.000000	80.839542 
2595.000000	80.839936 
2594.000000	80.839711 
2593.000000	80.839555 
2592.000000	80.839608 
2591.000000	80.839592 
2590.000000	80.839391 
2589.000000	80.839167 
2588.000000	80.839067 
2587.000000	80.839067 
2586.000000	80.839018 
2585.000000	80.838700 
2584.000000	80.838007 
2583.000000	80.837198 
2582.000000	80.836717 
2581.000000	80.836576 
2580.000000	80.836252 
2579.000000	80.835494 
2578.000000	80.834908 
2577.000000	80.835286 
2576.000000	80.836599 
2575.000000	80.838062 
2574.000000	80.839115 
2573.000000	80.839859 
2572.000000	80.840606 
2571.000000	80.841478 
2570.000000	80.842392 
2569.000000	80.843086 
2568.000000	80.843173 
2567.000000	80.842480 
2566.000000	80.841410 
2565.000000	80.840789 
2564.000000	80.841086 
2563.000000	80.841941 
2562.000000	80.842510 
2561.000000	80.842302 
2560.000000	80.841526 
2559.000000	80.840734 
2558.000000	80.840278 
2557.000000	80.840147 
2556.000000	80.840227 
2555.000000	80.840486 
2554.000000	80.840832 
2553.000000	80.841012 
2552.000000	80.840875 
2551.000000	80.840650 
2550.000000	80.840685 
2549.000000	80.840970 
2548.000000	80.841157 
2547.000000	80.841103 
2546.000000	80.841117 
2545.000000	80.841517 
2544.000000	80.842115 
2543.000000	80.842337 
2542.000000	80.841819 
2541.000000	80.840777 
2540.000000	80.839898 
2539.000000	80.839783 
2538.000000	80.840403 
2537.000000	80.841064 
2536.000000	80.841022 
2535.000000	80.840110 
2534.000000	80.838642 
2533.000000	80.836892 
2532.000000	80.834981 
2531.000000	80.833292 
2530.000000	80.832496 
2529.000000	80.832924 
2528.000000	80.834188 
2527.000000	80.835534 
2526.000000	80.836423 
2525.000000	80.836687 
2524.000000	80.836506 
2523.000000	80.836453 
2522.000000	80.837138 
2521.000000	80.838496 
2520.000000	80.839605 
2519.000000	80.839520 
2518.000000	80.838107 
2517.000000	80.836064 
2516.000000	80.834276 
2515.000000	80.833180 
2514.000000	80.832598 
2513.000000	80.832057 
2512.000000	80.831337 
2511.000000	80.830651 
2510.000000	80.830173 
2509.000000	80.829676 
2508.000000	80.828967 
2507.000000	80.828336 
2506.000000	80.828055 
2505.000000	80.827691 
2504.000000	80.826614 
2503.000000	80.825018 
2502.000000	80.823808 
2501.000000	80.823407 
2500.000000	80.823324 
2499.000000	80.822955 
2498.000000	80.822311 
2497.000000	80.821658 
2496.000000	80.820966 
2495.000000	80.820077 
2494.000000	80.819110 
2493.000000	80.818326 
2492.000000	80.817742 
2491.000000	80.817208 
2490.000000	80.816699 
2489.000000	80.816264 
2488.000000	80.815838 
2487.000000	80.815317 
2486.000000	80.814718 
2485.000000	80.814148 
2484.000000	80.813649 
2483.000000	80.813130 
2482.000000	80.812473 
2481.000000	80.811672 
2480.000000	80.810839 
2479.000000	80.810105 
2478.000000	80.809501 
2477.000000	80.808976 
2476.000000	80.808468 
2475.000000	80.807951 
2474.000000	80.807430 
2473.000000	80.806898 
2472.000000	80.806382 
2471.000000	80.805994 
2470.000000	80.805863 
2469.000000	80.805960 
2468.000000	80.806014 
2467.000000	80.805724 
2466.000000	80.805004 
2465.000000	80.804030 
2464.000000	80.803111 
2463.000000	80.802484 
2462.000000	80.802208 
2461.000000	80.802120 
2460.000000	80.801920 
2459.000000	80.801437 
2458.000000	80.800758 
2457.000000	80.800043 
2456.000000	80.799313 
2455.000000	80.798580 
2454.000000	80.798049 
2453.000000	80.797927 
2452.000000	80.798021 
2451.000000	80.797801 
2450.000000	80.797010 
2449.000000	80.796071 
2448.000000	80.795772 
2447.000000	80.796560 
2446.000000	80.798183 
2445.000000	80.799816 
2444.000000	80.800738 
2443.000000	80.800857 
2442.000000	80.800536 
2441.000000	80.799979 
2440.000000	80.799034 
2439.000000	80.797685 
2438.000000	80.796378 
2437.000000	80.795555 
2436.000000	80.795137 
2435.000000	80.794760 
2434.000000	80.794349 
2433.000000	80.794184 
2432.000000	80.794496 
2431.000000	80.795264 
2430.000000	80.796307 
2429.000000	80.797274 
2428.000000	80.797638 
2427.000000	80.797035 
2426.000000	80.795683 
2425.000000	80.794316 
2424.000000	80.793625 
2423.000000	80.793725 
2422.000000	80.794077 
2421.000000	80.793916 
2420.000000	80.792983 
2419.000000	80.791957 
2418.000000	80.791913 
2417.000000	80.793311 
2416.000000	80.795633 
2415.000000	80.797880 
2414.000000	80.799378 
2413.000000	80.799805 
2412.000000	80.799216 
2411.000000	80.798306 
2410.000000	80.797990 
2409.000000	80.798516 
2408.000000	80.799245 
2407.000000	80.799508 
2406.000000	80.799436 
2405.000000	80.799598 
2404.000000	80.800065 
2403.000000	80.800268 
2402.000000	80.799824 
2401.000000	80.799022 
2400.000000	80.798487 
2399.000000	80.798537 
2398.000000	80.798913 
2397.000000	80.799020 
2396.000000	80.798465 
2395.000000	80.797407 
2394.000000	80.796289 
2393.000000	80.795402 
2392.000000	80.794809 
2391.000000	80.794554 
2390.000000	80.794676 
2389.000000	80.795013 
2388.000000	80.795336 
2387.000000	80.795644 
2386.000000	80.796042 
2385.000000	80.796419 
2384.000000	80.796529 
2383.000000	80.796350 
2382.000000	80.796060 
2381.000000	80.795660 
2380.000000	80.795000 
2379.000000	80.794198 
2378.000000	80.793615 
2377.000000	80.793362 
2376.000000	80.793203 
2375.000000	80.793064 
2374.000000	80.793260 
2373.000000	80.793986 
2372.000000	80.794942 
2371.000000	80.795606 
2370.000000	80.795793 
2369.000000	80.795670 
2368.000000	80.795493 
2367.000000	80.795480 
2366.000000	80.795807 
2365.000000	80.796542 
2364.000000	80.797563 
2363.000000	80.798651 
2362.000000	80.799657 
2361.000000	80.800568 
2360.000000	80.801463 
2359.000000	80.802410 
2358.000000	80.803426 
2357.000000	80.804493 
2356.000000	80.805594 
2355.000000	80.806722 
2354.000000	80.807872 
2353.000000	80.809045 
2352.000000	80.810254 
2351.000000	80.811509 
2350.000000	80.812808 
2349.000000	80.814128 
2348.000000	80.815438 
2347.000000	80.816710 
2346.000000	80.817941 
2345.000000	80.819153 
2344.000000	80.820370 
2343.000000	80.821604 
2342.000000	80.822841 
2341.000000	80.824061 
2340.000000	80.825250 
2339.000000	80.826408 
2338.000000	80.827551 
2337.000000	80.828689 
2336.000000	80.829814 
2335.000000	80.830905 
2334.000000	80.831937 
2333.000000	80.832897 
2332.000000	80.833784 
2331.000000	80.834600 
2330.000000	80.835349 
2329.000000	80.836042 
2328.000000	80.836714 
2327.000000	80.837414 
2326.000000	80.838147 
2325.000000	80.838878 
2324.000000	80.839544 
2323.000000	80.840104 
2322.000000	80.840512 
2321.000000	80.840833 
2320.000000	80.841215 
2319.000000	80.841738 
2318.000000	80.842241 
2317.000000	80.842437 
2316.000000	80.842247 
2315.000000	80.841811 
2314.000000	80.841520 
2313.000000	80.841634 
2312.000000	80.842089 
2311.000000	80.842265 
2310.000000	80.841602 
2309.000000	80.840075 
2308.000000	80.838097 
2307.000000	80.836052 
2306.000000	80.834230 
2305.000000	80.833176 
2304.000000	80.833378 
2303.000000	80.834559 
2302.000000	80.835703 
2301.000000	80.835892 
2300.000000	80.834922 
2299.000000	80.833061 
2298.000000	80.830837 
2297.000000	80.828853 
2296.000000	80.827625 
2295.000000	80.826934 
2294.000000	80.826051 
2293.000000	80.824452 
2292.000000	80.822336 
2291.000000	80.820258 
2290.000000	80.818512 
2289.000000	80.817125 
2288.000000	80.816059 
2287.000000	80.815333 
2286.000000	80.814855 
2285.000000	80.814471 
2284.000000	80.813947 
2283.000000	80.813150 
2282.000000	80.812206 
2281.000000	80.811512 
2280.000000	80.811326 
2279.000000	80.811419 
2278.000000	80.811219 
2277.000000	80.810423 
2276.000000	80.809385 
2275.000000	80.808689 
2274.000000	80.808430 
2273.000000	80.807994 
2272.000000	80.806739 
2271.000000	80.804785 
2270.000000	80.803099 
2269.000000	80.802577 
2268.000000	80.803235 
2267.000000	80.804231 
2266.000000	80.804596 
2265.000000	80.804052 
2264.000000	80.803038 
2263.000000	80.802156 
2262.000000	80.801668 
2261.000000	80.801495 
2260.000000	80.801490 
2259.000000	80.801690 
2258.000000	80.802242 
2257.000000	80.803259 
2256.000000	80.804636 
2255.000000	80.805942 
2254.000000	80.806624 
2253.000000	80.806470 
2252.000000	80.805840 
2251.000000	80.805249 
2250.000000	80.804793 
2249.000000	80.804249 
2248.000000	80.803657 
2247.000000	80.803353 
2246.000000	80.803411 
2245.000000	80.803434 
2244.000000	80.803196 
2243.000000	80.803149 
2242.000000	80.803825 
2241.000000	80.805003 
2240.000000	80.805849 
2239.000000	80.806016 
2238.000000	80.806080 
2237.000000	80.806710 
2236.000000	80.807802 
2235.000000	80.808703 
2234.000000	80.809076 
2233.000000	80.809174 
2232.000000	80.809376 
2231.000000	80.809777 
2230.000000	80.810254 
2229.000000	80.810651 
2228.000000	80.810843 
2227.000000	80.810814 
2226.000000	80.810790 
2225.000000	80.811110 
2224.000000	80.811870 
2223.000000	80.812812 
2222.000000	80.813611 
2221.000000	80.814249 
2220.000000	80.814951 
2219.000000	80.815824 
2218.000000	80.816701 
2217.000000	80.817335 
2216.000000	80.817682 
2215.000000	80.817965 
2214.000000	80.818470 
2213.000000	80.819287 
2212.000000	80.820288 
2211.000000	80.821291 
2210.000000	80.822222 
2209.000000	80.823115 
2208.000000	80.824013 
2207.000000	80.824899 
2206.000000	80.825688 
2205.000000	80.826288 
2204.000000	80.826682 
2203.000000	80.826953 
2202.000000	80.827218 
2201.000000	80.827570 
2200.000000	80.828128 
2199.000000	80.829053 
2198.000000	80.830396 
2197.000000	80.831948 
2196.000000	80.833316 
2195.000000	80.834274 
2194.000000	80.834908 
2193.000000	80.835471 
2192.000000	80.836131 
2191.000000	80.836878 
2190.000000	80.837611 
2189.000000	80.838254 
2188.000000	80.838839 
2187.000000	80.839511 
2186.000000	80.840392 
2185.000000	80.841403 
2184.000000	80.842267 
2183.000000	80.842785 
2182.000000	80.843019 
2181.000000	80.843227 
2180.000000	80.843631 
2179.000000	80.844240 
2178.000000	80.844878 
2177.000000	80.845317 
2176.000000	80.845474 
2175.000000	80.845496 
2174.000000	80.845609 
2173.000000	80.845865 
2172.000000	80.846127 
2171.000000	80.846320 
2170.000000	80.846575 
2169.000000	80.847042 
2168.000000	80.847658 
2167.000000	80.848175 
2166.000000	80.848436 
2165.000000	80.848509 
2164.000000	80.848570 
2163.000000	80.848725 
2162.000000	80.848945 
2161.000000	80.849142 
2160.000000	80.849259 
2159.000000	80.849345 
2158.000000	80.849507 
2157.000000	80.849786 
2156.000000	80.850068 
2155.000000	80.850174 
2154.000000	80.850050 
2153.000000	80.849792 
2152.000000	80.849532 
2151.000000	80.849323 
2150.000000	80.849185 
2149.000000	80.849170 
2148.000000	80.849305 
2147.000000	80.849527 
2146.000000	80.849709 
2145.000000	80.849771 
2144.000000	80.849731 
2143.000000	80.849681 
2142.000000	80.849708 
2141.000000	80.849824 
2140.000000	80.849983 
2139.000000	80.850133 
2138.000000	80.850263 
2137.000000	80.850403 
2136.000000	80.850592 
2135.000000	80.850832 
2134.000000	80.851100 
2133.000000	80.851370 
2132.000000	80.851630 
2131.000000	80.851883 
2130.000000	80.852130 
2129.000000	80.852368 
2128.000000	80.852599 
2127.000000	80.852825 
2126.000000	80.853047 
2125.000000	80.853264 
2124.000000	80.853480 
2123.000000	80.853702 
2122.000000	80.853938 
2121.000000	80.854194 
2120.000000	80.854470 
2119.000000	80.854758 
2118.000000	80.855054 
2117.000000	80.855357 
2116.000000	80.855668 
2115.000000	80.855991 
2114.000000	80.856327 
2113.000000	80.856676 
2112.000000	80.857038 
2111.000000	80.857410 
2110.000000	80.857790 
2109.000000	80.858174 
2108.000000	80.858560 
2107.000000	80.858948 
2106.000000	80.859337 
2105.000000	80.859730 
2104.000000	80.860129 
2103.000000	80.860538 
2102.000000	80.860961 
2101.000000	80.861402 
2100.000000	80.861861 
2099.000000	80.862338 
2098.000000	80.862826 
2097.000000	80.863304 
2096.000000	80.863751 
2095.000000	80.864171 
2094.000000	80.864598 
2093.000000	80.865051 
2092.000000	80.865488 
2091.000000	80.865841 
2090.000000	80.866069 
2089.000000	80.866212 
2088.000000	80.866382 
2087.000000	80.866725 
2086.000000	80.867317 
2085.000000	80.868038 
2084.000000	80.868610 
2083.000000	80.868915 
2082.000000	80.869166 
2081.000000	80.869634 
2080.000000	80.870224 
2079.000000	80.870633 
2078.000000	80.870891 
2077.000000	80.871350 
2076.000000	80.872112 
2075.000000	80.872906 
2074.000000	80.873562 
2073.000000	80.874199 
2072.000000	80.874865 
2071.000000	80.875371 
2070.000000	80.875592 
2069.000000	80.875599 
2068.000000	80.875467 
2067.000000	80.875280 
2066.000000	80.875302 
2065.000000	80.875811 
2064.000000	80.876713 
2063.000000	80.877698 
2062.000000	80.878682 
2061.000000	80.879675 
2060.000000	80.880342 
2059.000000	80.880187 
2058.000000	80.879193 
2057.000000	80.877920 
2056.000000	80.876957 
2055.000000	80.876544 
2054.000000	80.876725 
2053.000000	80.877401 
2052.000000	80.878202 
2051.000000	80.878672 
2050.000000	80.878712 
2049.000000	80.878641 
2048.000000	80.878702 
2047.000000	80.878702 
2046.000000	80.878229 
2045.000000	80.877030 
2044.000000	80.875167 
2043.000000	80.873049 
2042.000000	80.871360 
2041.000000	80.870608 
2040.000000	80.870613 
2039.000000	80.870700 
2038.000000	80.870561 
2037.000000	80.870616 
2036.000000	80.871351 
2035.000000	80.872581 
2034.000000	80.873586 
2033.000000	80.873932 
2032.000000	80.873879 
2031.000000	80.873896 
2030.000000	80.873909 
2029.000000	80.873309 
2028.000000	80.871781 
2027.000000	80.869893 
2026.000000	80.868680 
2025.000000	80.868586 
2024.000000	80.869024 
2023.000000	80.868974 
2022.000000	80.868018 
2021.000000	80.866603 
2020.000000	80.865425 
2019.000000	80.864680 
2018.000000	80.864033 
2017.000000	80.863158 
2016.000000	80.862259 
2015.000000	80.861986 
2014.000000	80.862791 
2013.000000	80.864386 
2012.000000	80.865803 
2011.000000	80.866250 
2010.000000	80.865783 
2009.000000	80.865056 
2008.000000	80.864522 
2007.000000	80.864051 
2006.000000	80.863346 
2005.000000	80.862448 
2004.000000	80.861723 
2003.000000	80.861544 
2002.000000	80.862022 
2001.000000	80.862940 
2000.000000	80.863868 
1999.000000	80.864387 
1998.000000	80.864267 
1997.000000	80.863532 
1996.000000	80.862554 
1995.000000	80.861914 
1994.000000	80.861915 
1993.000000	80.862246 
1992.000000	80.862366 
1991.000000	80.862265 
1990.000000	80.862476 
1989.000000	80.863240 
1988.000000	80.864122 
1987.000000	80.864633 
1986.000000	80.864921 
1985.000000	80.865543 
1984.000000	80.866760 
1983.000000	80.868456 
1982.000000	80.870432 
1981.000000	80.872408 
1980.000000	80.873905 
1979.000000	80.874508 
1978.000000	80.874339 
1977.000000	80.874046 
1976.000000	80.874305 
1975.000000	80.875277 
1974.000000	80.876509 
1973.000000	80.877387 
1972.000000	80.877822 
1971.000000	80.878432 
1970.000000	80.879808 
1969.000000	80.881653 
1968.000000	80.882901 
1967.000000	80.882965 
1966.000000	80.882533 
1965.000000	80.882852 
1964.000000	80.884409 
1963.000000	80.886675 
1962.000000	80.888945 
1961.000000	80.891090 
1960.000000	80.893279 
1959.000000	80.895251 
1958.000000	80.896367 
1957.000000	80.896443 
1956.000000	80.896084 
1955.000000	80.895973 
1954.000000	80.896182 
1953.000000	80.896378 
1952.000000	80.896440 
1951.000000	80.896669 
1950.000000	80.897347 
1949.000000	80.898292 
1948.000000	80.898961 
1947.000000	80.899041 
1946.000000	80.898858 
1945.000000	80.899025 
1944.000000	80.899711 
1943.000000	80.900473 
1942.000000	80.900869 
1941.000000	80.901007 
1940.000000	80.901344 
1939.000000	80.902097 
1938.000000	80.903058 
1937.000000	80.903905 
1936.000000	80.904471 
1935.000000	80.904646 
1934.000000	80.904489 
1933.000000	80.904526 
1932.000000	80.905410 
1931.000000	80.907026 
1930.000000	80.908228 
1929.000000	80.908025 
1928.000000	80.906725 
1927.000000	80.905718 
1926.000000	80.906057 
1925.000000	80.907357 
1924.000000	80.908528 
1923.000000	80.909197 
1922.000000	80.910048 
1921.000000	80.911626 
1920.000000	80.913321 
1919.000000	80.913680 
1918.000000	80.911651 
1917.000000	80.907702 
1916.000000	80.903725 
1915.000000	80.901413 
1914.000000	80.900968 
1913.000000	80.901273 
1912.000000	80.901252 
1911.000000	80.901039 
1910.000000	80.901395 
1909.000000	80.902293 
1908.000000	80.902651 
1907.000000	80.901683 
1906.000000	80.899791 
1905.000000	80.897767 
1904.000000	80.896217 
1903.000000	80.895661 
1902.000000	80.896331 
1901.000000	80.897578 
1900.000000	80.898176 
1899.000000	80.897658 
1898.000000	80.896709 
1897.000000	80.895844 
1896.000000	80.894706 
1895.000000	80.893105 
1894.000000	80.891979 
1893.000000	80.892337 
1892.000000	80.893866 
1891.000000	80.895267 
1890.000000	80.895783 
1889.000000	80.895864 
1888.000000	80.896176 
1887.000000	80.896817 
1886.000000	80.897700 
1885.000000	80.899058 
1884.000000	80.901504 
1883.000000	80.905371 
1882.000000	80.909697 
1881.000000	80.912514 
1880.000000	80.912665 
1879.000000	80.911032 
1878.000000	80.909671 
1877.000000	80.909714 
1876.000000	80.910939 
1875.000000	80.913107 
1874.000000	80.916231 
1873.000000	80.919438 
1872.000000	80.920985 
1871.000000	80.920088 
1870.000000	80.918267 
1869.000000	80.918171 
1868.000000	80.920705 
1867.000000	80.924739 
1866.000000	80.929337 
1865.000000	80.934196 
1864.000000	80.938699 
1863.000000	80.942209 
1862.000000	80.944747 
1861.000000	80.946685 
1860.000000	80.948171 
1859.000000	80.949540 
1858.000000	80.951692 
1857.000000	80.955083 
1856.000000	80.958963 
1855.000000	80.962437 
1854.000000	80.965351 
1853.000000	80.968121 
1852.000000	80.971067 
1851.000000	80.973867 
1850.000000	80.976169 
1849.000000	80.977958 
1848.000000	80.979542 
1847.000000	80.981242 
1846.000000	80.983103 
1845.000000	80.984848 
1844.000000	80.986287 
1843.000000	80.987722 
1842.000000	80.989454 
1841.000000	80.991376 
1840.000000	80.993258 
1839.000000	80.995179 
1838.000000	80.997464 
1837.000000	80.999987 
1836.000000	81.002405 
1835.000000	81.004856 
1834.000000	81.007748 
1833.000000	81.011381 
1832.000000	81.015577 
1831.000000	81.019024 
1830.000000	81.020002 
1829.000000	81.018069 
1828.000000	81.014929 
1827.000000	81.012598 
1826.000000	81.011278 
1825.000000	81.010116 
1824.000000	81.009313 
1823.000000	81.010467 
1822.000000	81.014771 
1821.000000	81.021414 
1820.000000	81.027916 
1819.000000	81.032198 
1818.000000	81.033796 
1817.000000	81.033236 
1816.000000	81.031912 
1815.000000	81.031581 
1814.000000	81.032512 
1813.000000	81.032772 
1812.000000	81.030710 
1811.000000	81.028201 
1810.000000	81.028877 
1809.000000	81.033350 
1808.000000	81.038800 
1807.000000	81.043415 
1806.000000	81.048778 
1805.000000	81.056199 
1804.000000	81.063273 
1803.000000	81.065961 
1802.000000	81.063964 
1801.000000	81.062119 
1800.000000	81.063511 
1799.000000	81.066171 
1798.000000	81.067261 
1797.000000	81.066146 
1796.000000	81.064132 
1795.000000	81.064231 
1794.000000	81.069941 
1793.000000	81.081727 
1792.000000	81.094397 
1791.000000	81.101619 
1790.000000	81.102933 
1789.000000	81.103859 
1788.000000	81.110067 
1787.000000	81.122463 
1786.000000	81.136686 
1785.000000	81.146928 
1784.000000	81.151875 
1783.000000	81.155760 
1782.000000	81.162804 
1781.000000	81.171896 
1780.000000	81.176334 
1779.000000	81.173248 
1778.000000	81.168064 
1777.000000	81.167144 
1776.000000	81.171062 
1775.000000	81.178264 
1774.000000	81.190630 
1773.000000	81.210606 
1772.000000	81.232760 
1771.000000	81.248665 
1770.000000	81.260406 
1769.000000	81.275138 
1768.000000	81.294499 
1767.000000	81.314453 
1766.000000	81.332380 
1765.000000	81.350909 
1764.000000	81.373092 
1763.000000	81.398293 
1762.000000	81.423309 
1761.000000	81.445351 
1760.000000	81.463276 
1759.000000	81.479329 
1758.000000	81.497265 
1757.000000	81.518955 
1756.000000	81.541811 
1755.000000	81.562953 
1754.000000	81.584108 
1753.000000	81.607417 
1752.000000	81.629544 
1751.000000	81.645935 
1750.000000	81.658596 
1749.000000	81.672632 
1748.000000	81.689292 
1747.000000	81.705422 
1746.000000	81.719717 
1745.000000	81.733668 
1744.000000	81.746770 
1743.000000	81.756978 
1742.000000	81.765006 
1741.000000	81.774709 
1740.000000	81.786321 
1739.000000	81.793841 
1738.000000	81.793164 
1737.000000	81.786363 
1736.000000	81.773226 
1735.000000	81.746662 
1734.000000	81.705838 
1733.000000	81.668803 
1732.000000	81.651971 
1731.000000	81.654013 
1730.000000	81.664831 
1729.000000	81.673123 
1728.000000	81.671967 
1727.000000	81.661160 
1726.000000	81.645114 
1725.000000	81.628692 
1724.000000	81.614881 
1723.000000	81.605535 
1722.000000	81.599719 
1721.000000	81.593785 
1720.000000	81.582941 
1719.000000	81.563215 
1718.000000	81.535015 
1717.000000	81.505401 
1716.000000	81.481773 
1715.000000	81.464915 
1714.000000	81.451371 
1713.000000	81.437096 
1712.000000	81.420051 
1711.000000	81.401083 
1710.000000	81.381656 
1709.000000	81.362487 
1708.000000	81.343874 
1707.000000	81.326397 
1706.000000	81.311193 
1705.000000	81.297563 
1704.000000	81.283969 
1703.000000	81.270260 
1702.000000	81.257457 
1701.000000	81.246334 
1700.000000	81.233839 
1699.000000	81.218109 
1698.000000	81.207063 
1697.000000	81.208792 
1696.000000	81.221190 
1695.000000	81.231910 
1694.000000	81.232451 
1693.000000	81.226752 
1692.000000	81.220938 
1691.000000	81.218140 
1690.000000	81.218427 
1689.000000	81.219637 
1688.000000	81.219578 
1687.000000	81.218980 
1686.000000	81.222718 
1685.000000	81.232321 
1684.000000	81.237921 
1683.000000	81.231176 
1682.000000	81.220420 
1681.000000	81.214927 
1680.000000	81.216150 
1679.000000	81.222327 
1678.000000	81.233273 
1677.000000	81.249339 
1676.000000	81.265844 
1675.000000	81.274146 
1674.000000	81.272393 
1673.000000	81.268118 
1672.000000	81.265924 
1671.000000	81.265717 
1670.000000	81.267360 
1669.000000	81.272618 
1668.000000	81.280803 
1667.000000	81.287729 
1666.000000	81.290625 
1665.000000	81.290163 
1664.000000	81.288954 
1663.000000	81.289777 
1662.000000	81.293530 
1661.000000	81.299863 
1660.000000	81.306875 
1659.000000	81.312723 
1658.000000	81.317823 
1657.000000	81.323505 
1656.000000	81.328477 
1655.000000	81.329297 
1654.000000	81.326333 
1653.000000	81.323061 
1652.000000	81.320331 
1651.000000	81.319821 
1650.000000	81.321049 
1649.000000	81.322028 
1648.000000	81.321719 
1647.000000	81.320311 
1646.000000	81.319773 
1645.000000	81.321516 
1644.000000	81.324319 
1643.000000	81.325600 
1642.000000	81.323605 
1641.000000	81.319417 
1640.000000	81.315110 
1639.000000	81.311478 
1638.000000	81.308197 
1637.000000	81.305701 
1636.000000	81.305457 
1635.000000	81.306852 
1634.000000	81.309270 
1633.000000	81.311853 
1632.000000	81.313688 
1631.000000	81.314305 
1630.000000	81.314308 
1629.000000	81.314931 
1628.000000	81.316327 
1627.000000	81.316505 
1626.000000	81.313577 
1625.000000	81.308627 
1624.000000	81.304732 
1623.000000	81.304066 
1622.000000	81.305461 
1621.000000	81.306582 
1620.000000	81.305915 
1619.000000	81.303378 
1618.000000	81.300826 
1617.000000	81.300645 
1616.000000	81.302458 
1615.000000	81.303712 
1614.000000	81.303874 
1613.000000	81.304470 
1612.000000	81.306788 
1611.000000	81.309862 
1610.000000	81.311415 
1609.000000	81.311223 
1608.000000	81.311147 
1607.000000	81.312178 
1606.000000	81.313423 
1605.000000	81.314468 
1604.000000	81.315517 
1603.000000	81.316685 
1602.000000	81.317975 
1601.000000	81.319248 
1600.000000	81.320271 
1599.000000	81.321015 
1598.000000	81.322042 
1597.000000	81.324096 
1596.000000	81.327291 
1595.000000	81.331185 
1594.000000	81.335256 
1593.000000	81.339146 
1592.000000	81.342674 
1591.000000	81.346132 
1590.000000	81.350017 
1589.000000	81.354038 
1588.000000	81.357002 
1587.000000	81.358367 
1586.000000	81.359021 
1585.000000	81.360285 
1584.000000	81.362414 
1583.000000	81.364291 
1582.000000	81.365776 
1581.000000	81.367940 
1580.000000	81.370998 
1579.000000	81.373763 
1578.000000	81.376303 
1577.000000	81.380637 
1576.000000	81.386967 
1575.000000	81.391589 
1574.000000	81.392445 
1573.000000	81.390950 
1572.000000	81.389061 
1571.000000	81.388931 
1570.000000	81.392183 
1569.000000	81.397941 
1568.000000	81.403474 
1567.000000	81.407182 
1566.000000	81.410024 
1565.000000	81.413355 
1564.000000	81.417086 
1563.000000	81.419702 
1562.000000	81.421165 
1561.000000	81.422365 
1560.000000	81.424595 
1559.000000	81.427891 
1558.000000	81.429099 
1557.000000	81.431371 
1556.000000	81.434999 
1555.000000	81.435974 
1554.000000	81.433895 
1553.000000	81.433770 
1552.000000	81.437657 
1551.000000	81.441405 
1550.000000	81.441051 
1549.000000	81.438007 
1548.000000	81.436686 
1547.000000	81.438042 
1546.000000	81.439566 
1545.000000	81.439813 
1544.000000	81.440182 
1543.000000	81.441391 
1542.000000	81.443220 
1541.000000	81.445680 
1540.000000	81.445938 
1539.000000	81.440630 
1538.000000	81.433696 
1537.000000	81.429124 
1536.000000	81.425916 
1535.000000	81.421426 
1534.000000	81.415672 
1533.000000	81.411702 
1532.000000	81.409969 
1531.000000	81.408026 
1530.000000	81.405376 
1529.000000	81.403572 
1528.000000	81.403594 
1527.000000	81.405030 
1526.000000	81.407045 
1525.000000	81.409419 
1524.000000	81.411582 
1523.000000	81.412256 
1522.000000	81.410598 
1521.000000	81.407544 
1520.000000	81.405275 
1519.000000	81.405444 
1518.000000	81.408410 
1517.000000	81.412469 
1516.000000	81.414534 
1515.000000	81.414431 
1514.000000	81.415181 
1513.000000	81.418162 
1512.000000	81.421094 
1511.000000	81.421754 
1510.000000	81.420264 
1509.000000	81.417883 
1508.000000	81.416185 
1507.000000	81.418312 
1506.000000	81.422057 
1505.000000	81.422847 
1504.000000	81.422178 
1503.000000	81.422754 
1502.000000	81.425933 
1501.000000	81.432046 
1500.000000	81.440358 
1499.000000	81.449758 
1498.000000	81.459296 
1497.000000	81.467276 
1496.000000	81.470610 
1495.000000	81.468368 
1494.000000	81.463806 
1493.000000	81.461253 
1492.000000	81.462470 
1491.000000	81.466728 
1490.000000	81.472292 
1489.000000	81.477500 
1488.000000	81.480921 
1487.000000	81.483385 
1486.000000	81.487078 
1485.000000	81.492063 
1484.000000	81.496378 
1483.000000	81.497974 
1482.000000	81.496919 
1481.000000	81.495820 
1480.000000	81.498259 
1479.000000	81.505856 
1478.000000	81.516871 
1477.000000	81.526728 
1476.000000	81.532050 
1475.000000	81.534136 
1474.000000	81.537586 
1473.000000	81.545553 
1472.000000	81.554753 
1471.000000	81.560519 
1470.000000	81.564655 
1469.000000	81.571173 
1468.000000	81.579893 
1467.000000	81.587801 
1466.000000	81.594335 
1465.000000	81.602831 
1464.000000	81.614234 
1463.000000	81.624855 
1462.000000	81.632995 
1461.000000	81.640975 
1460.000000	81.651298 
1459.000000	81.663333 
1458.000000	81.672528 
1457.000000	81.672394 
1456.000000	81.661035 
1455.000000	81.644924 
1454.000000	81.633102 
1453.000000	81.629975 
1452.000000	81.633252 
1451.000000	81.637928 
1450.000000	81.642260 
1449.000000	81.647701 
1448.000000	81.653024 
1447.000000	81.654017 
1446.000000	81.650357 
1445.000000	81.647623 
1444.000000	81.648897 
1443.000000	81.650977 
1442.000000	81.649561 
1441.000000	81.645460 
1440.000000	81.643823 
1439.000000	81.648412 
1438.000000	81.657393 
1437.000000	81.663899 
1436.000000	81.663102 
1435.000000	81.657070 
1434.000000	81.652644 
1433.000000	81.654410 
1432.000000	81.660676 
1431.000000	81.665852 
1430.000000	81.665563 
1429.000000	81.659390 
1428.000000	81.650501 
1427.000000	81.643390 
1426.000000	81.640042 
1425.000000	81.638028 
1424.000000	81.633363 
1423.000000	81.626521 
1422.000000	81.621866 
1421.000000	81.620588 
1420.000000	81.615383 
1419.000000	81.597151 
1418.000000	81.569279 
1417.000000	81.544039 
1416.000000	81.528094 
1415.000000	81.518857 
1414.000000	81.509781 
1413.000000	81.496924 
1412.000000	81.481991 
1411.000000	81.469622 
1410.000000	81.461974 
1409.000000	81.457744 
1408.000000	81.455340 
1407.000000	81.454432 
1406.000000	81.455709 
1405.000000	81.461898 
1404.000000	81.475278 
1403.000000	81.493213 
1402.000000	81.510377 
1401.000000	81.524209 
1400.000000	81.534625 
1399.000000	81.541196 
1398.000000	81.540636 
1397.000000	81.527990 
1396.000000	81.502735 
1395.000000	81.475874 
1394.000000	81.466870 
1393.000000	81.486401 
1392.000000	81.528529 
1391.000000	81.578452 
1390.000000	81.622774 
1389.000000	81.655254 
1388.000000	81.676798 
1387.000000	81.692188 
1386.000000	81.705503 
1385.000000	81.719240 
1384.000000	81.734742 
1383.000000	81.751856 
1382.000000	81.770246 
1381.000000	81.790588 
1380.000000	81.811709 
1379.000000	81.829326 
1378.000000	81.841094 
1377.000000	81.850401 
1376.000000	81.862283 
1375.000000	81.877105 
1374.000000	81.890695 
1373.000000	81.899373 
1372.000000	81.902603 
1371.000000	81.902432 
1370.000000	81.902194 
1369.000000	81.905104 
1368.000000	81.913335 
1367.000000	81.925623 
1366.000000	81.937355 
1365.000000	81.943975 
1364.000000	81.943104 
1363.000000	81.936558 
1362.000000	81.929916 
1361.000000	81.926663 
1360.000000	81.925574 
1359.000000	81.925011 
1358.000000	81.925690 
1357.000000	81.928558 
1356.000000	81.932294 
1355.000000	81.934782 
1354.000000	81.936290 
1353.000000	81.938410 
1352.000000	81.939678 
1351.000000	81.936860 
1350.000000	81.930721 
1349.000000	81.924545 
1348.000000	81.918901 
1347.000000	81.911817 
1346.000000	81.904159 
1345.000000	81.899413 
1344.000000	81.897520 
1343.000000	81.893185 
1342.000000	81.882048 
1341.000000	81.865674 
1340.000000	81.849757 
1339.000000	81.838346 
1338.000000	81.830310 
1337.000000	81.822271 
1336.000000	81.813083 
1335.000000	81.804485 
1334.000000	81.799147 
1333.000000	81.797917 
1332.000000	81.798030 
1331.000000	81.795192 
1330.000000	81.787892 
1329.000000	81.778640 
1328.000000	81.771385 
1327.000000	81.768673 
1326.000000	81.770250 
1325.000000	81.772423 
1324.000000	81.770862 
1323.000000	81.764516 
1322.000000	81.756470 
1321.000000	81.750385 
1320.000000	81.746936 
1319.000000	81.744442 
1318.000000	81.742040 
1317.000000	81.740679 
1316.000000	81.740720 
1315.000000	81.740290 
1314.000000	81.737044 
1313.000000	81.731042 
1312.000000	81.724684 
1311.000000	81.719835 
1310.000000	81.715972 
1309.000000	81.711449 
1308.000000	81.705970 
1307.000000	81.701206 
1306.000000	81.698949 
1305.000000	81.698831 
1304.000000	81.698735 
1303.000000	81.696830 
1302.000000	81.692956 
1301.000000	81.687961 
1300.000000	81.682287 
1299.000000	81.675593 
1298.000000	81.667675 
1297.000000	81.659406 
1296.000000	81.652538 
1295.000000	81.648498 
1294.000000	81.646950 
1293.000000	81.645818 
1292.000000	81.643269 
1291.000000	81.639569 
1290.000000	81.636271 
1289.000000	81.633452 
1288.000000	81.628783 
1287.000000	81.620133 
1286.000000	81.608499 
1285.000000	81.597846 
1284.000000	81.592293 
1283.000000	81.593139 
1282.000000	81.597648 
1281.000000	81.600534 
1280.000000	81.597670 
1279.000000	81.589018 
1278.000000	81.577843 
1277.000000	81.567399 
1276.000000	81.558827 
1275.000000	81.551956 
1274.000000	81.546033 
1273.000000	81.539199 
1272.000000	81.529216 
1271.000000	81.515907 
1270.000000	81.501742 
1269.000000	81.489378 
1268.000000	81.479896 
1267.000000	81.473452 
1266.000000	81.469164 
1265.000000	81.463733 
1264.000000	81.452584 
1263.000000	81.434142 
1262.000000	81.411782 
1261.000000	81.390561 
1260.000000	81.373512 
1259.000000	81.361384 
1258.000000	81.353497 
1257.000000	81.347972 
1256.000000	81.342686 
1255.000000	81.336999 
1254.000000	81.331137 
1253.000000	81.323872 
1252.000000	81.313796 
1251.000000	81.303917 
1250.000000	81.300915 
1249.000000	81.307176 
1248.000000	81.316835 
1247.000000	81.322534 
1246.000000	81.323076 
1245.000000	81.321198 
1244.000000	81.317740 
1243.000000	81.313670 
1242.000000	81.315251 
1241.000000	81.329878 
1240.000000	81.356107 
1239.000000	81.383297 
1238.000000	81.402688 
1237.000000	81.414358 
1236.000000	81.422243 
1235.000000	81.428241 
1234.000000	81.433984 
1233.000000	81.442837 
1232.000000	81.454995 
1231.000000	81.463511 
1230.000000	81.460661 
1229.000000	81.447501 
1228.000000	81.433011 
1227.000000	81.423411 
1226.000000	81.415107 
1225.000000	81.399156 
1224.000000	81.371447 
1223.000000	81.338492 
1222.000000	81.314322 
1221.000000	81.310908 
1220.000000	81.329430 
1219.000000	81.358666 
1218.000000	81.381569 
1217.000000	81.385096 
1216.000000	81.365882 
1215.000000	81.329819 
1214.000000	81.287649 
1213.000000	81.248823 
1212.000000	81.217138 
1211.000000	81.190966 
1210.000000	81.166845 
1209.000000	81.142569 
1208.000000	81.117797 
1207.000000	81.093324 
1206.000000	81.070173 
1205.000000	81.048121 
1204.000000	81.024332 
1203.000000	80.994330 
1202.000000	80.955455 
1201.000000	80.909607 
1200.000000	80.862414 
1199.000000	80.819339 
1198.000000	80.781849 
1197.000000	80.747131 
1196.000000	80.711586 
1195.000000	80.674328 
1194.000000	80.637081 
1193.000000	80.601320 
1192.000000	80.566783 
1191.000000	80.532589 
1190.000000	80.498481 
1189.000000	80.464952 
1188.000000	80.433340 
1187.000000	80.405426 
1186.000000	80.380972 
1185.000000	80.355885 
1184.000000	80.325562 
1183.000000	80.291145 
1182.000000	80.259943 
1181.000000	80.237504 
1180.000000	80.220904 
1179.000000	80.201681 
1178.000000	80.173816 
1177.000000	80.136840 
1176.000000	80.093023 
1175.000000	80.045155 
1174.000000	79.996620 
1173.000000	79.950059 
1172.000000	79.905433 
1171.000000	79.861393 
1170.000000	79.818434 
1169.000000	79.778754 
1168.000000	79.743111 
1167.000000	79.710067 
1166.000000	79.679005 
1165.000000	79.652378 
1164.000000	79.634143 
1163.000000	79.626838 
1162.000000	79.630457 
1161.000000	79.642802 
1160.000000	79.659915 
1159.000000	79.676949 
1158.000000	79.689752 
1157.000000	79.695539 
1156.000000	79.692065 
1155.000000	79.677731 
1154.000000	79.653688 
1153.000000	79.624868 
1152.000000	79.597226 
1151.000000	79.573291 
1150.000000	79.550680 
1149.000000	79.525267 
1148.000000	79.495637 
1147.000000	79.464155 
1146.000000	79.433704 
1145.000000	79.404099 
1144.000000	79.372707 
1143.000000	79.338367 
1142.000000	79.303047 
1141.000000	79.268844 
1140.000000	79.234641 
1139.000000	79.197223 
1138.000000	79.155355 
1137.000000	79.111336 
1136.000000	79.068238 
1135.000000	79.026772 
1134.000000	78.985569 
1133.000000	78.943871 
1132.000000	78.902637 
1131.000000	78.862671 
1130.000000	78.822588 
1129.000000	78.779884 
1128.000000	78.733932 
1127.000000	78.686589 
1126.000000	78.639636 
1125.000000	78.593058 
1124.000000	78.546619 
1123.000000	78.501652 
1122.000000	78.460063 
1121.000000	78.422701 
1120.000000	78.389669 
1119.000000	78.360421 
1118.000000	78.331799 
1117.000000	78.297776 
1116.000000	78.254051 
1115.000000	78.202820 
1114.000000	78.151145 
1113.000000	78.104854 
1112.000000	78.065503 
1111.000000	78.032078 
1110.000000	78.002784 
1109.000000	77.975161 
1108.000000	77.946952 
1107.000000	77.917859 
1106.000000	77.889414 
1105.000000	77.863278 
1104.000000	77.840814 
1103.000000	77.823662 
1102.000000	77.812363 
1101.000000	77.805694 
1100.000000	77.801778 
1099.000000	77.800395 
1098.000000	77.801407 
1097.000000	77.801657 
1096.000000	77.796528 
1095.000000	77.783822 
1094.000000	77.762491 
1093.000000	77.727263 
1092.000000	77.669931 
1091.000000	77.589438 
1090.000000	77.497420 
1089.000000	77.408942 
1088.000000	77.328647 
1087.000000	77.250098 
1086.000000	77.167543 
1085.000000	77.083403 
1084.000000	77.003284 
1083.000000	76.927897 
1082.000000	76.853201 
1081.000000	76.777025 
1080.000000	76.702332 
1079.000000	76.633610 
1078.000000	76.572520 
1077.000000	76.518440 
1076.000000	76.471344 
1075.000000	76.432002 
1074.000000	76.400365 
1073.000000	76.375171 
1072.000000	76.352800 
1071.000000	76.323542 
1070.000000	76.272270 
1069.000000	76.190377 
1068.000000	76.089762 
1067.000000	76.000195 
1066.000000	75.947210 
1065.000000	75.933233 
1064.000000	75.941394 
1063.000000	75.953186 
1062.000000	75.958653 
1061.000000	75.954191 
1060.000000	75.940263 
1059.000000	75.924561 
1058.000000	75.921241 
1057.000000	75.940218 
1056.000000	75.976621 
1055.000000	76.013257 
1054.000000	76.033866 
1053.000000	76.032424 
1052.000000	76.009849 
1051.000000	75.965510 
1050.000000	75.895812 
1049.000000	75.800712 
1048.000000	75.687859 
1047.000000	75.568201 
1046.000000	75.448965 
1045.000000	75.332716 
1044.000000	75.221767 
1043.000000	75.119672 
1042.000000	75.026749 
1041.000000	74.936952 
1040.000000	74.843131 
1039.000000	74.746576 
1038.000000	74.659710 
1037.000000	74.597313 
1036.000000	74.564203 
1035.000000	74.551177 
1034.000000	74.542883 
1033.000000	74.529314 
1032.000000	74.508840 
1031.000000	74.482779 
1030.000000	74.453204 
1029.000000	74.427747 
1028.000000	74.419757 
1027.000000	74.436527 
1026.000000	74.468876 
1025.000000	74.498616 
1024.000000	74.516419 
1023.000000	74.527134 
1022.000000	74.538343 
1021.000000	74.550020 
1020.000000	74.556902 
1019.000000	74.556245 
1018.000000	74.550796 
1017.000000	74.547124 
1016.000000	74.552762 
1015.000000	74.571622 
1014.000000	74.599421 
1013.000000	74.625780 
1012.000000	74.643389 
1011.000000	74.654115 
1010.000000	74.665332 
1009.000000	74.682483 
1008.000000	74.706610 
1007.000000	74.736151 
1006.000000	74.767682 
1005.000000	74.795997 
1004.000000	74.817342 
1003.000000	74.834049 
1002.000000	74.854000 
1001.000000	74.883580 
1000.000000	74.921815 
999.000000	 74.962607 
998.000000	 75.001931 
997.000000	 75.040603 
996.000000	 75.079912 
995.000000	 75.117873 
994.000000	 75.152012 
993.000000	 75.183627 
992.000000	 75.216526 
991.000000	 75.252917 
990.000000	 75.293150 
989.000000	 75.337921 
988.000000	 75.387199 
987.000000	 75.438138 
986.000000	 75.488337 
985.000000	 75.540715 
984.000000	 75.600528 
983.000000	 75.667822 
982.000000	 75.737947 
981.000000	 75.809341 
980.000000	 75.884687 
979.000000	 75.963164 
978.000000	 76.038647 
977.000000	 76.109275 
976.000000	 76.182617 
975.000000	 76.266066 
974.000000	 76.356297 
973.000000	 76.443184 
972.000000	 76.521227 
971.000000	 76.592688 
970.000000	 76.662570 
969.000000	 76.735593 
968.000000	 76.815828 
967.000000	 76.903547 
966.000000	 76.992689 
965.000000	 77.075934 
964.000000	 77.152392 
963.000000	 77.226940 
962.000000	 77.302291 
961.000000	 77.375539 
960.000000	 77.443495 
959.000000	 77.508070 
958.000000	 77.574037 
957.000000	 77.642742 
956.000000	 77.710252 
955.000000	 77.771875 
954.000000	 77.826729 
953.000000	 77.876556 
952.000000	 77.921420 
951.000000	 77.959833 
950.000000	 77.993655 
949.000000	 78.028935 
948.000000	 78.068722 
947.000000	 78.107816 
946.000000	 78.139257 
945.000000	 78.164541 
944.000000	 78.192240 
943.000000	 78.226217 
942.000000	 78.260484 
941.000000	 78.287632 
940.000000	 78.307404 
939.000000	 78.324015 
938.000000	 78.339211 
937.000000	 78.352522 
936.000000	 78.366296 
935.000000	 78.385563 
934.000000	 78.412437 
933.000000	 78.443473 
932.000000	 78.472906 
931.000000	 78.496689 
930.000000	 78.514055 
929.000000	 78.527994 
928.000000	 78.544553 
927.000000	 78.568738 
926.000000	 78.599199 
925.000000	 78.628442 
924.000000	 78.650095 
923.000000	 78.665203 
922.000000	 78.679762 
921.000000	 78.696885 
920.000000	 78.714364 
919.000000	 78.730515 
918.000000	 78.748821 
917.000000	 78.773549 
916.000000	 78.802670 
915.000000	 78.829426 
914.000000	 78.851207 
913.000000	 78.872824 
912.000000	 78.899347 
911.000000	 78.929263 
910.000000	 78.957342 
909.000000	 78.981844 
908.000000	 79.006395 
907.000000	 79.036997 
906.000000	 79.079462 
905.000000	 79.136983 
904.000000	 79.206719 
903.000000	 79.280319 
902.000000	 79.351250 
901.000000	 79.420395 
900.000000	 79.491826 
899.000000	 79.565988 
898.000000	 79.641252 
897.000000	 79.719070 
896.000000	 79.801372 
895.000000	 79.884030 
894.000000	 79.959154 
893.000000	 80.024383 
892.000000	 80.084963 
891.000000	 80.146969 
890.000000	 80.213892 
889.000000	 80.289716 
888.000000	 80.377965 
887.000000	 80.474308 
886.000000	 80.565564 
885.000000	 80.640813 
884.000000	 80.700728 
883.000000	 80.753136 
882.000000	 80.801972 
881.000000	 80.844114 
880.000000	 80.875538 
879.000000	 80.896161 
878.000000	 80.908030 
877.000000	 80.912320 
876.000000	 80.910619 
875.000000	 80.907232 
874.000000	 80.906858 
873.000000	 80.910165 
872.000000	 80.915255 
871.000000	 80.924992 
870.000000	 80.948735 
869.000000	 80.992509 
868.000000	 81.049229 
867.000000	 81.103469 
866.000000	 81.146807 
865.000000	 81.184718 
864.000000	 81.227111 
863.000000	 81.276173 
862.000000	 81.325542 
861.000000	 81.367760 
860.000000	 81.399712 
859.000000	 81.423862 
858.000000	 81.447324 
857.000000	 81.477200 
856.000000	 81.513810 
855.000000	 81.550336 
854.000000	 81.581410 
853.000000	 81.609207 
852.000000	 81.637925 
851.000000	 81.665691 
850.000000	 81.687365 
849.000000	 81.703899 
848.000000	 81.722942 
847.000000	 81.748770 
846.000000	 81.775489 
845.000000	 81.792525 
844.000000	 81.795500 
843.000000	 81.790960 
842.000000	 81.791367 
841.000000	 81.804852 
840.000000	 81.827646 
839.000000	 81.845339 
838.000000	 81.842855 
837.000000	 81.815800 
836.000000	 81.774530 
835.000000	 81.737896 
834.000000	 81.720226 
833.000000	 81.720733 
832.000000	 81.724998 
831.000000	 81.718614 
830.000000	 81.700798 
829.000000	 81.684593 
828.000000	 81.684212 
827.000000	 81.702977 
826.000000	 81.731040 
825.000000	 81.750823 
824.000000	 81.745976 
823.000000	 81.712298 
822.000000	 81.663881 
821.000000	 81.624048 
820.000000	 81.605509 
819.000000	 81.599579 
818.000000	 81.585446 
817.000000	 81.549505 
816.000000	 81.496007 
815.000000	 81.440580 
814.000000	 81.394268 
813.000000	 81.353524 
812.000000	 81.304197 
811.000000	 81.232163 
810.000000	 81.128775 
809.000000	 80.990502 
808.000000	 80.820807 
807.000000	 80.633684 
806.000000	 80.448278 
805.000000	 80.274943 
804.000000	 80.109896 
803.000000	 79.946263 
802.000000	 79.786486 
801.000000	 79.641667 
800.000000	 79.523597 
799.000000	 79.441152 
798.000000	 79.399596 
797.000000	 79.397352 
796.000000	 79.424396 
795.000000	 79.467385 
794.000000	 79.516576 
793.000000	 79.567172 
792.000000	 79.616993 
791.000000	 79.665816 
790.000000	 79.713837 
789.000000	 79.755943 
788.000000	 79.779375 
787.000000	 79.772513 
786.000000	 79.735640 
785.000000	 79.678585 
784.000000	 79.609604 
783.000000	 79.532830 
782.000000	 79.455682 
781.000000	 79.391236 
780.000000	 79.350735 
779.000000	 79.337771 
778.000000	 79.350684 
777.000000	 79.386501 
776.000000	 79.441042 
775.000000	 79.508643 
774.000000	 79.583915 
773.000000	 79.662284 
772.000000	 79.739048 
771.000000	 79.810824 
770.000000	 79.877693 
769.000000	 79.940495 
768.000000	 79.996969 
767.000000	 80.045325 
766.000000	 80.090286 
765.000000	 80.138600 
764.000000	 80.188373 
763.000000	 80.230336 
762.000000	 80.261193 
761.000000	 80.287774 
760.000000	 80.315279 
759.000000	 80.340031 
758.000000	 80.358578 
757.000000	 80.376235 
756.000000	 80.399971 
755.000000	 80.428445 
754.000000	 80.455904 
753.000000	 80.482195 
752.000000	 80.512855 
751.000000	 80.552072 
750.000000	 80.600983 
749.000000	 80.659839 
748.000000	 80.725990 
747.000000	 80.791562 
746.000000	 80.848432 
745.000000	 80.894817 
744.000000	 80.933644 
743.000000	 80.967110 
742.000000	 80.997380 
741.000000	 81.029879 
740.000000	 81.070063 
739.000000	 81.117786 
738.000000	 81.168890 
737.000000	 81.220376 
736.000000	 81.269783 
735.000000	 81.311433 
734.000000	 81.339340 
733.000000	 81.354830 
732.000000	 81.367856 
731.000000	 81.389315 
730.000000	 81.424071 
729.000000	 81.470809 
728.000000	 81.521524 
727.000000	 81.562613 
726.000000	 81.585631 
725.000000	 81.596305 
724.000000	 81.608215 
723.000000	 81.628243 
722.000000	 81.651927 
721.000000	 81.671687 
720.000000	 81.684296 
719.000000	 81.691519 
718.000000	 81.698414 
717.000000	 81.710386 
716.000000	 81.728603 
715.000000	 81.747632 
714.000000	 81.760118 
713.000000	 81.763988 
712.000000	 81.761592 
711.000000	 81.753259 
710.000000	 81.738220 
709.000000	 81.721261 
708.000000	 81.709277 
707.000000	 81.703548 
706.000000	 81.700926 
705.000000	 81.699097 
704.000000	 81.693863 
703.000000	 81.675613 
702.000000	 81.633447 
701.000000	 81.565685 
700.000000	 81.483833 
699.000000	 81.399907 
698.000000	 81.316082 
697.000000	 81.230175 
696.000000	 81.149059 
695.000000	 81.095361 
694.000000	 81.092298 
693.000000	 81.143982 
692.000000	 81.231908 
691.000000	 81.325918 
690.000000	 81.404282 
689.000000	 81.463074 
688.000000	 81.509056 
687.000000	 81.550438 
686.000000	 81.590882 
685.000000	 81.630679 
684.000000	 81.670620 
683.000000	 81.710484 
682.000000	 81.748969 
681.000000	 81.787241 
680.000000	 81.830554 
679.000000	 81.879417 
678.000000	 81.923673 
677.000000	 81.955473 
676.000000	 81.978974 
675.000000	 82.002621 
674.000000	 82.027265 
673.000000	 82.043163 
672.000000	 82.038128 
671.000000	 82.001372 
670.000000	 81.933799 
669.000000	 81.862346 
668.000000	 81.872674 
667.000000	 81.995595 
666.000000	 82.147846 
665.000000	 82.277919 
664.000000	 82.389479 
663.000000	 82.480188 
662.000000	 82.546106 
661.000000	 82.597067 
660.000000	 82.647834 
659.000000	 82.700939 
658.000000	 82.752409 
657.000000	 82.804077 
656.000000	 82.849814 
655.000000	 82.871083 
654.000000	 82.866670 
653.000000	 82.862280 
652.000000	 82.874715 
651.000000	 82.892648 
650.000000	 82.906505 

