PE IR                   SPECTRUM    ASCII       PEDS        1.60        
  -1
~SP.SP
22/12/06
16:17:01.00
23/01/09
15:11:31.00
Administrator

650.000000
4









FRONTIER FT-IR,CPU32 MAIN 00.09.9951 07-SEPTEMBER-2011 11:49:41
MIR TGS
MIR
OPTKBR
90694
0.200000

4.000000
STRONG
RATIO
SPECTRUM
MAGNITUDE
MIRACLE ATR
DOUBLE

COMBINED


0


#HDR
-1
-1
#GR
CM-1
%T
0.00002384185791015625
0.0
4000.000000
-1.000000
3351
8
98.032078
87.683299
#DATA
4000.000000	97.982806 
3999.000000	97.980332 
3998.000000	97.973895 
3997.000000	97.965363 
3996.000000	97.958007 
3995.000000	97.953429 
3994.000000	97.951475 
3993.000000	97.950852 
3992.000000	97.950006 
3991.000000	97.948235 
3990.000000	97.946093 
3989.000000	97.944738 
3988.000000	97.944788 
3987.000000	97.945765 
3986.000000	97.946677 
3985.000000	97.947001 
3984.000000	97.946770 
3983.000000	97.945886 
3982.000000	97.943917 
3981.000000	97.940763 
3980.000000	97.937234 
3979.000000	97.934613 
3978.000000	97.933506 
3977.000000	97.933188 
3976.000000	97.932203 
3975.000000	97.929831 
3974.000000	97.926777 
3973.000000	97.924327 
3972.000000	97.922819 
3971.000000	97.921355 
3970.000000	97.918932 
3969.000000	97.915513 
3968.000000	97.911892 
3967.000000	97.908801 
3966.000000	97.906327 
3965.000000	97.904156 
3964.000000	97.902058 
3963.000000	97.899990 
3962.000000	97.897894 
3961.000000	97.895648 
3960.000000	97.893354 
3959.000000	97.891517 
3958.000000	97.890636 
3957.000000	97.890619 
3956.000000	97.890654 
3955.000000	97.889777 
3954.000000	97.887648 
3953.000000	97.884621 
3952.000000	97.881334 
3951.000000	97.878246 
3950.000000	97.875485 
3949.000000	97.873029 
3948.000000	97.870841 
3947.000000	97.868875 
3946.000000	97.867083 
3945.000000	97.865466 
3944.000000	97.864029 
3943.000000	97.862591 
3942.000000	97.860783 
3941.000000	97.858346 
3940.000000	97.855336 
3939.000000	97.852067 
3938.000000	97.848882 
3937.000000	97.845953 
3936.000000	97.843359 
3935.000000	97.841283 
3934.000000	97.839896 
3933.000000	97.838978 
3932.000000	97.837783 
3931.000000	97.835657 
3930.000000	97.832702 
3929.000000	97.829729 
3928.000000	97.827450 
3927.000000	97.825848 
3926.000000	97.824379 
3925.000000	97.822464 
3924.000000	97.819750 
3923.000000	97.816221 
3922.000000	97.812313 
3921.000000	97.808689 
3920.000000	97.805728 
3919.000000	97.803329 
3918.000000	97.801283 
3917.000000	97.799577 
3916.000000	97.798180 
3915.000000	97.796795 
3914.000000	97.795191 
3913.000000	97.793358 
3912.000000	97.791269 
3911.000000	97.788743 
3910.000000	97.785742 
3909.000000	97.782668 
3908.000000	97.780089 
3907.000000	97.778285 
3906.000000	97.777003 
3905.000000	97.775554 
3904.000000	97.773244 
3903.000000	97.769919 
3902.000000	97.766006 
3901.000000	97.762202 
3900.000000	97.758975 
3899.000000	97.756364 
3898.000000	97.754224 
3897.000000	97.752454 
3896.000000	97.751025 
3895.000000	97.749811 
3894.000000	97.748579 
3893.000000	97.747154 
3892.000000	97.745543 
3891.000000	97.743822 
3890.000000	97.741952 
3889.000000	97.739897 
3888.000000	97.737801 
3887.000000	97.735917 
3886.000000	97.734325 
3885.000000	97.732845 
3884.000000	97.731244 
3883.000000	97.729508 
3882.000000	97.727783 
3881.000000	97.726188 
3880.000000	97.724700 
3879.000000	97.723216 
3878.000000	97.721670 
3877.000000	97.720077 
3876.000000	97.718496 
3875.000000	97.716956 
3874.000000	97.715397 
3873.000000	97.713702 
3872.000000	97.711856 
3871.000000	97.710074 
3870.000000	97.708613 
3869.000000	97.707396 
3868.000000	97.705965 
3867.000000	97.704051 
3866.000000	97.702057 
3865.000000	97.700665 
3864.000000	97.699970 
3863.000000	97.699321 
3862.000000	97.698331 
3861.000000	97.697229 
3860.000000	97.696385 
3859.000000	97.695948 
3858.000000	97.695807 
3857.000000	97.695580 
3856.000000	97.694635 
3855.000000	97.692694 
3854.000000	97.690238 
3853.000000	97.687775 
3852.000000	97.685273 
3851.000000	97.682811 
3850.000000	97.680815 
3849.000000	97.679411 
3848.000000	97.678110 
3847.000000	97.676277 
3846.000000	97.673838 
3845.000000	97.671233 
3844.000000	97.668946 
3843.000000	97.667063 
3842.000000	97.665283 
3841.000000	97.663366 
3840.000000	97.661405 
3839.000000	97.659550 
3838.000000	97.657769 
3837.000000	97.656056 
3836.000000	97.654542 
3835.000000	97.653316 
3834.000000	97.652280 
3833.000000	97.651255 
3832.000000	97.650112 
3831.000000	97.648822 
3830.000000	97.647434 
3829.000000	97.646017 
3828.000000	97.644600 
3827.000000	97.643162 
3826.000000	97.641690 
3825.000000	97.640177 
3824.000000	97.638613 
3823.000000	97.637002 
3822.000000	97.635363 
3821.000000	97.633707 
3820.000000	97.632022 
3819.000000	97.630288 
3818.000000	97.628512 
3817.000000	97.626726 
3816.000000	97.624959 
3815.000000	97.623212 
3814.000000	97.621471 
3813.000000	97.619744 
3812.000000	97.618053 
3811.000000	97.616409 
3810.000000	97.614806 
3809.000000	97.613235 
3808.000000	97.611700 
3807.000000	97.610213 
3806.000000	97.608773 
3805.000000	97.607364 
3804.000000	97.605975 
3803.000000	97.604613 
3802.000000	97.603286 
3801.000000	97.601980 
3800.000000	97.600663 
3799.000000	97.599319 
3798.000000	97.597959 
3797.000000	97.596590 
3796.000000	97.595194 
3795.000000	97.593734 
3794.000000	97.592178 
3793.000000	97.590519 
3792.000000	97.588771 
3791.000000	97.586956 
3790.000000	97.585085 
3789.000000	97.583163 
3788.000000	97.581179 
3787.000000	97.579120 
3786.000000	97.577001 
3785.000000	97.574890 
3784.000000	97.572837 
3783.000000	97.570800 
3782.000000	97.568716 
3781.000000	97.566612 
3780.000000	97.564592 
3779.000000	97.562715 
3778.000000	97.560884 
3777.000000	97.558997 
3776.000000	97.557048 
3775.000000	97.555062 
3774.000000	97.553021 
3773.000000	97.550902 
3772.000000	97.548742 
3771.000000	97.546591 
3770.000000	97.544445 
3769.000000	97.542279 
3768.000000	97.540094 
3767.000000	97.537895 
3766.000000	97.535692 
3765.000000	97.533482 
3764.000000	97.531247 
3763.000000	97.528976 
3762.000000	97.526674 
3761.000000	97.524348 
3760.000000	97.522000 
3759.000000	97.519631 
3758.000000	97.517254 
3757.000000	97.514884 
3756.000000	97.512523 
3755.000000	97.510159 
3754.000000	97.507794 
3753.000000	97.505450 
3752.000000	97.503150 
3751.000000	97.500899 
3750.000000	97.498690 
3749.000000	97.496512 
3748.000000	97.494366 
3747.000000	97.492261 
3746.000000	97.490222 
3745.000000	97.488276 
3744.000000	97.486418 
3743.000000	97.484618 
3742.000000	97.482850 
3741.000000	97.481012 
3740.000000	97.479176 
3739.000000	97.477606 
3738.000000	97.476362 
3737.000000	97.475233 
3736.000000	97.474052 
3735.000000	97.472597 
3734.000000	97.470694 
3733.000000	97.469057 
3732.000000	97.469063 
3731.000000	97.470912 
3730.000000	97.472892 
3729.000000	97.473376 
3728.000000	97.472641 
3727.000000	97.472273 
3726.000000	97.472746 
3725.000000	97.472777 
3724.000000	97.471675 
3723.000000	97.470099 
3722.000000	97.468536 
3721.000000	97.466921 
3720.000000	97.465916 
3719.000000	97.467089 
3718.000000	97.471424 
3717.000000	97.477392 
3716.000000	97.480812 
3715.000000	97.478869 
3714.000000	97.474067 
3713.000000	97.472362 
3712.000000	97.476164 
3711.000000	97.481485 
3710.000000	97.483786 
3709.000000	97.482523 
3708.000000	97.479740 
3707.000000	97.477461 
3706.000000	97.476217 
3705.000000	97.475924 
3704.000000	97.477527 
3703.000000	97.483138 
3702.000000	97.494139 
3701.000000	97.509404 
3700.000000	97.525800 
3699.000000	97.541014 
3698.000000	97.556448 
3697.000000	97.574623 
3696.000000	97.592792 
3695.000000	97.604111 
3694.000000	97.606220 
3693.000000	97.603226 
3692.000000	97.598492 
3691.000000	97.589906 
3690.000000	97.576503 
3689.000000	97.566727 
3688.000000	97.570778 
3687.000000	97.586490 
3686.000000	97.603398 
3685.000000	97.615986 
3684.000000	97.624026 
3683.000000	97.626669 
3682.000000	97.622176 
3681.000000	97.614286 
3680.000000	97.610680 
3679.000000	97.611903 
3678.000000	97.610648 
3677.000000	97.605645 
3676.000000	97.606331 
3675.000000	97.613490 
3674.000000	97.612563 
3673.000000	97.594683 
3672.000000	97.568120 
3671.000000	97.547718 
3670.000000	97.537406 
3669.000000	97.528407 
3668.000000	97.517216 
3667.000000	97.510336 
3666.000000	97.511836 
3665.000000	97.517826 
3664.000000	97.521385 
3663.000000	97.519532 
3662.000000	97.513754 
3661.000000	97.505020 
3660.000000	97.490251 
3659.000000	97.466122 
3658.000000	97.435206 
3657.000000	97.406610 
3656.000000	97.386677 
3655.000000	97.370528 
3654.000000	97.349381 
3653.000000	97.321737 
3652.000000	97.293271 
3651.000000	97.268032 
3650.000000	97.243373 
3649.000000	97.217998 
3648.000000	97.198539 
3647.000000	97.187957 
3646.000000	97.180058 
3645.000000	97.170124 
3644.000000	97.161399 
3643.000000	97.159134 
3642.000000	97.161112 
3641.000000	97.157115 
3640.000000	97.139326 
3639.000000	97.111525 
3638.000000	97.084692 
3637.000000	97.066348 
3636.000000	97.057282 
3635.000000	97.055395 
3634.000000	97.057225 
3633.000000	97.056420 
3632.000000	97.047662 
3631.000000	97.032757 
3630.000000	97.019998 
3629.000000	97.012612 
3628.000000	97.002579 
3627.000000	96.984248 
3626.000000	96.963396 
3625.000000	96.947804 
3624.000000	96.937323 
3623.000000	96.925746 
3622.000000	96.910608 
3621.000000	96.898689 
3620.000000	96.897810 
3619.000000	96.905807 
3618.000000	96.912504 
3617.000000	96.910783 
3616.000000	96.902167 
3615.000000	96.894537 
3614.000000	96.895344 
3613.000000	96.904856 
3612.000000	96.916194 
3611.000000	96.923010 
3610.000000	96.926342 
3609.000000	96.931626 
3608.000000	96.940344 
3607.000000	96.948160 
3606.000000	96.951240 
3605.000000	96.951008 
3604.000000	96.951548 
3603.000000	96.954836 
3602.000000	96.958983 
3601.000000	96.960982 
3600.000000	96.959507 
3599.000000	96.956503 
3598.000000	96.956563 
3597.000000	96.962694 
3596.000000	96.973335 
3595.000000	96.983932 
3594.000000	96.990091 
3593.000000	96.989977 
3592.000000	96.985497 
3591.000000	96.981084 
3590.000000	96.981379 
3589.000000	96.987390 
3588.000000	96.994199 
3587.000000	96.995332 
3586.000000	96.990005 
3585.000000	96.982799 
3584.000000	96.977608 
3583.000000	96.974755 
3582.000000	96.973052 
3581.000000	96.972581 
3580.000000	96.974488 
3579.000000	96.978772 
3578.000000	96.983875 
3577.000000	96.988497 
3576.000000	96.993042 
3575.000000	96.998757 
3574.000000	97.005588 
3573.000000	97.011311 
3572.000000	97.013346 
3571.000000	97.010855 
3570.000000	97.005152 
3569.000000	96.998720 
3568.000000	96.993225 
3567.000000	96.988661 
3566.000000	96.985113 
3565.000000	96.984026 
3564.000000	96.986821 
3563.000000	96.993188 
3562.000000	97.000860 
3561.000000	97.007136 
3560.000000	97.010921 
3559.000000	97.012890 
3558.000000	97.014121 
3557.000000	97.015008 
3556.000000	97.015411 
3555.000000	97.015447 
3554.000000	97.015858 
3553.000000	97.017017 
3552.000000	97.017858 
3551.000000	97.016701 
3550.000000	97.013130 
3549.000000	97.008466 
3548.000000	97.004006 
3547.000000	96.999642 
3546.000000	96.995428 
3545.000000	96.993450 
3544.000000	96.996296 
3543.000000	97.003953 
3542.000000	97.013453 
3541.000000	97.021513 
3540.000000	97.026925 
3539.000000	97.030489 
3538.000000	97.033469 
3537.000000	97.036370 
3536.000000	97.038820 
3535.000000	97.040361 
3534.000000	97.041241 
3533.000000	97.042399 
3532.000000	97.044456 
3531.000000	97.046875 
3530.000000	97.048435 
3529.000000	97.048510 
3528.000000	97.047509 
3527.000000	97.046061 
3526.000000	97.044449 
3525.000000	97.043119 
3524.000000	97.042941 
3523.000000	97.044440 
3522.000000	97.047183 
3521.000000	97.050298 
3520.000000	97.053505 
3519.000000	97.057136 
3518.000000	97.061173 
3517.000000	97.064679 
3516.000000	97.066450 
3515.000000	97.066079 
3514.000000	97.064261 
3513.000000	97.062425 
3512.000000	97.062091 
3511.000000	97.064096 
3510.000000	97.068117 
3509.000000	97.072826 
3508.000000	97.076724 
3507.000000	97.079200 
3506.000000	97.080703 
3505.000000	97.082061 
3504.000000	97.083760 
3503.000000	97.085789 
3502.000000	97.088038 
3501.000000	97.090542 
3500.000000	97.093293 
3499.000000	97.095959 
3498.000000	97.097992 
3497.000000	97.099131 
3496.000000	97.099679 
3495.000000	97.100283 
3494.000000	97.101413 
3493.000000	97.103103 
3492.000000	97.105129 
3491.000000	97.107227 
3490.000000	97.109192 
3489.000000	97.110902 
3488.000000	97.112341 
3487.000000	97.113622 
3486.000000	97.114931 
3485.000000	97.116379 
3484.000000	97.117893 
3483.000000	97.119271 
3482.000000	97.120391 
3481.000000	97.121371 
3480.000000	97.122469 
3479.000000	97.123814 
3478.000000	97.125265 
3477.000000	97.126555 
3476.000000	97.127570 
3475.000000	97.128443 
3474.000000	97.129401 
3473.000000	97.130546 
3472.000000	97.131807 
3471.000000	97.133041 
3470.000000	97.134135 
3469.000000	97.135040 
3468.000000	97.135803 
3467.000000	97.136599 
3466.000000	97.137628 
3465.000000	97.138961 
3464.000000	97.140430 
3463.000000	97.141725 
3462.000000	97.142671 
3461.000000	97.143292 
3460.000000	97.143773 
3459.000000	97.144312 
3458.000000	97.144984 
3457.000000	97.145747 
3456.000000	97.146530 
3455.000000	97.147297 
3454.000000	97.148045 
3453.000000	97.148806 
3452.000000	97.149716 
3451.000000	97.150982 
3450.000000	97.152636 
3449.000000	97.154340 
3448.000000	97.155665 
3447.000000	97.156607 
3446.000000	97.157638 
3445.000000	97.159044 
3444.000000	97.160431 
3443.000000	97.161174 
3442.000000	97.161169 
3441.000000	97.160823 
3440.000000	97.160326 
3439.000000	97.159402 
3438.000000	97.158023 
3437.000000	97.157018 
3436.000000	97.157458 
3435.000000	97.159472 
3434.000000	97.161931 
3433.000000	97.163415 
3432.000000	97.163508 
3431.000000	97.162853 
3430.000000	97.162244 
3429.000000	97.161875 
3428.000000	97.161529 
3427.000000	97.161162 
3426.000000	97.160962 
3425.000000	97.160953 
3424.000000	97.160932 
3423.000000	97.160866 
3422.000000	97.160988 
3421.000000	97.161327 
3420.000000	97.161570 
3419.000000	97.161705 
3418.000000	97.162307 
3417.000000	97.163589 
3416.000000	97.164562 
3415.000000	97.163983 
3414.000000	97.162096 
3413.000000	97.160641 
3412.000000	97.160665 
3411.000000	97.160996 
3410.000000	97.159651 
3409.000000	97.156270 
3408.000000	97.152494 
3407.000000	97.150036 
3406.000000	97.149015 
3405.000000	97.148310 
3404.000000	97.146831 
3403.000000	97.144121 
3402.000000	97.140321 
3401.000000	97.136276 
3400.000000	97.133520 
3399.000000	97.133394 
3398.000000	97.135850 
3397.000000	97.139227 
3396.000000	97.141308 
3395.000000	97.140819 
3394.000000	97.137906 
3393.000000	97.133849 
3392.000000	97.130509 
3391.000000	97.129215 
3390.000000	97.129857 
3389.000000	97.131014 
3388.000000	97.131445 
3387.000000	97.131451 
3386.000000	97.132274 
3385.000000	97.134234 
3384.000000	97.135974 
3383.000000	97.135834 
3382.000000	97.133513 
3381.000000	97.130072 
3380.000000	97.126715 
3379.000000	97.123944 
3378.000000	97.121728 
3377.000000	97.119907 
3376.000000	97.118299 
3375.000000	97.116715 
3374.000000	97.115058 
3373.000000	97.113305 
3372.000000	97.111347 
3371.000000	97.109027 
3370.000000	97.106403 
3369.000000	97.103836 
3368.000000	97.101618 
3367.000000	97.099565 
3366.000000	97.097171 
3365.000000	97.094205 
3364.000000	97.091065 
3363.000000	97.088404 
3362.000000	97.086383 
3361.000000	97.084410 
3360.000000	97.081736 
3359.000000	97.078297 
3358.000000	97.074886 
3357.000000	97.072389 
3356.000000	97.070835 
3355.000000	97.069208 
3354.000000	97.066296 
3353.000000	97.061740 
3352.000000	97.056391 
3351.000000	97.051748 
3350.000000	97.048730 
3349.000000	97.047201 
3348.000000	97.046220 
3347.000000	97.044757 
3346.000000	97.042401 
3345.000000	97.039384 
3344.000000	97.036137 
3343.000000	97.032808 
3342.000000	97.029238 
3341.000000	97.025428 
3340.000000	97.021827 
3339.000000	97.018926 
3338.000000	97.016606 
3337.000000	97.014177 
3336.000000	97.011252 
3335.000000	97.008343 
3334.000000	97.006206 
3333.000000	97.004741 
3332.000000	97.002896 
3331.000000	96.999765 
3330.000000	96.995424 
3329.000000	96.990613 
3328.000000	96.985875 
3327.000000	96.981330 
3326.000000	96.977085 
3325.000000	96.973392 
3324.000000	96.970349 
3323.000000	96.967653 
3322.000000	96.964804 
3321.000000	96.961493 
3320.000000	96.957715 
3319.000000	96.953544 
3318.000000	96.948990 
3317.000000	96.944168 
3316.000000	96.939426 
3315.000000	96.934969 
3314.000000	96.930414 
3313.000000	96.925125 
3312.000000	96.919135 
3311.000000	96.913417 
3310.000000	96.908879 
3309.000000	96.905287 
3308.000000	96.901593 
3307.000000	96.897078 
3306.000000	96.891801 
3305.000000	96.886084 
3304.000000	96.880307 
3303.000000	96.875245 
3302.000000	96.871808 
3301.000000	96.870004 
3300.000000	96.868362 
3299.000000	96.864904 
3298.000000	96.858723 
3297.000000	96.850358 
3296.000000	96.841241 
3295.000000	96.832779 
3294.000000	96.825697 
3293.000000	96.819963 
3292.000000	96.815211 
3291.000000	96.811250 
3290.000000	96.807913 
3289.000000	96.804395 
3288.000000	96.799414 
3287.000000	96.792556 
3286.000000	96.785208 
3285.000000	96.779456 
3284.000000	96.776017 
3283.000000	96.773813 
3282.000000	96.771397 
3281.000000	96.768253 
3280.000000	96.764436 
3279.000000	96.759701 
3278.000000	96.753586 
3277.000000	96.746110 
3276.000000	96.737964 
3275.000000	96.730115 
3274.000000	96.723442 
3273.000000	96.718484 
3272.000000	96.715094 
3271.000000	96.712405 
3270.000000	96.709572 
3269.000000	96.706620 
3268.000000	96.704225 
3267.000000	96.702579 
3266.000000	96.700723 
3265.000000	96.697312 
3264.000000	96.692060 
3263.000000	96.686295 
3262.000000	96.681811 
3261.000000	96.679048 
3260.000000	96.676743 
3259.000000	96.673613 
3258.000000	96.670137 
3257.000000	96.667987 
3256.000000	96.667627 
3255.000000	96.667159 
3254.000000	96.664298 
3253.000000	96.658929 
3252.000000	96.653029 
3251.000000	96.648324 
3250.000000	96.644634 
3249.000000	96.640787 
3248.000000	96.636263 
3247.000000	96.631355 
3246.000000	96.626359 
3245.000000	96.621382 
3244.000000	96.616712 
3243.000000	96.612525 
3242.000000	96.608168 
3241.000000	96.602550 
3240.000000	96.595677 
3239.000000	96.589246 
3238.000000	96.585030 
3237.000000	96.582949 
3236.000000	96.581118 
3235.000000	96.577724 
3234.000000	96.572541 
3233.000000	96.566619 
3232.000000	96.561151 
3231.000000	96.556832 
3230.000000	96.553870 
3229.000000	96.552018 
3228.000000	96.550570 
3227.000000	96.548634 
3226.000000	96.545570 
3225.000000	96.541337 
3224.000000	96.536552 
3223.000000	96.532222 
3222.000000	96.529146 
3221.000000	96.527247 
3220.000000	96.525363 
3219.000000	96.521980 
3218.000000	96.516477 
3217.000000	96.509697 
3216.000000	96.503281 
3215.000000	96.498210 
3214.000000	96.494045 
3213.000000	96.489636 
3212.000000	96.484372 
3211.000000	96.478548 
3210.000000	96.472766 
3209.000000	96.467349 
3208.000000	96.462377 
3207.000000	96.457869 
3206.000000	96.453650 
3205.000000	96.449275 
3204.000000	96.444442 
3203.000000	96.439396 
3202.000000	96.434690 
3201.000000	96.430551 
3200.000000	96.426729 
3199.000000	96.422841 
3198.000000	96.418701 
3197.000000	96.414324 
3196.000000	96.409806 
3195.000000	96.405315 
3194.000000	96.401022 
3193.000000	96.396948 
3192.000000	96.392890 
3191.000000	96.388591 
3190.000000	96.383985 
3189.000000	96.379217 
3188.000000	96.374513 
3187.000000	96.370011 
3186.000000	96.365697 
3185.000000	96.361455 
3184.000000	96.357134 
3183.000000	96.352657 
3182.000000	96.348046 
3181.000000	96.343424 
3180.000000	96.338949 
3179.000000	96.334695 
3178.000000	96.330618 
3177.000000	96.326619 
3176.000000	96.322637 
3175.000000	96.318649 
3174.000000	96.314623 
3173.000000	96.310535 
3172.000000	96.306417 
3171.000000	96.302319 
3170.000000	96.298214 
3169.000000	96.294030 
3168.000000	96.289792 
3167.000000	96.285689 
3166.000000	96.281893 
3165.000000	96.278336 
3164.000000	96.274697 
3163.000000	96.270692 
3162.000000	96.266317 
3161.000000	96.261871 
3160.000000	96.257691 
3159.000000	96.253875 
3158.000000	96.250209 
3157.000000	96.246342 
3156.000000	96.242164 
3155.000000	96.238001 
3154.000000	96.234336 
3153.000000	96.231304 
3152.000000	96.228571 
3151.000000	96.225694 
3150.000000	96.222570 
3149.000000	96.219426 
3148.000000	96.216417 
3147.000000	96.213349 
3146.000000	96.209886 
3145.000000	96.205989 
3144.000000	96.202044 
3143.000000	96.198453 
3142.000000	96.195152 
3141.000000	96.191774 
3140.000000	96.188329 
3139.000000	96.185401 
3138.000000	96.183446 
3137.000000	96.182153 
3136.000000	96.180612 
3135.000000	96.178198 
3134.000000	96.175026 
3133.000000	96.171634 
3132.000000	96.168455 
3131.000000	96.165570 
3130.000000	96.162898 
3129.000000	96.160426 
3128.000000	96.158229 
3127.000000	96.156307 
3126.000000	96.154414 
3125.000000	96.152147 
3124.000000	96.149279 
3123.000000	96.145988 
3122.000000	96.142658 
3121.000000	96.139451 
3120.000000	96.136234 
3119.000000	96.132896 
3118.000000	96.129655 
3117.000000	96.126947 
3116.000000	96.125039 
3115.000000	96.123835 
3114.000000	96.122901 
3113.000000	96.121630 
3112.000000	96.119555 
3111.000000	96.116669 
3110.000000	96.113540 
3109.000000	96.110990 
3108.000000	96.109426 
3107.000000	96.108484 
3106.000000	96.107313 
3105.000000	96.105360 
3104.000000	96.102712 
3103.000000	96.099711 
3102.000000	96.096475 
3101.000000	96.093044 
3100.000000	96.089886 
3099.000000	96.087763 
3098.000000	96.086988 
3097.000000	96.086962 
3096.000000	96.086693 
3095.000000	96.085585 
3094.000000	96.083219 
3093.000000	96.078826 
3092.000000	96.072162 
3091.000000	96.064965 
3090.000000	96.060035 
3089.000000	96.058249 
3088.000000	96.057474 
3087.000000	96.055200 
3086.000000	96.051442 
3085.000000	96.047991 
3084.000000	96.045868 
3083.000000	96.044638 
3082.000000	96.043397 
3081.000000	96.041358 
3080.000000	96.038190 
3079.000000	96.034859 
3078.000000	96.033611 
3077.000000	96.036055 
3076.000000	96.041268 
3075.000000	96.046127 
3074.000000	96.047509 
3073.000000	96.044638 
3072.000000	96.040126 
3071.000000	96.038264 
3070.000000	96.040853 
3069.000000	96.044679 
3068.000000	96.044582 
3067.000000	96.039254 
3066.000000	96.032605 
3065.000000	96.029422 
3064.000000	96.031304 
3063.000000	96.036508 
3062.000000	96.041065 
3061.000000	96.039871 
3060.000000	96.030326 
3059.000000	96.016690 
3058.000000	96.007875 
3057.000000	96.008436 
3056.000000	96.013913 
3055.000000	96.017274 
3054.000000	96.017695 
3053.000000	96.019520 
3052.000000	96.024463 
3051.000000	96.029331 
3050.000000	96.031427 
3049.000000	96.032429 
3048.000000	96.035798 
3047.000000	96.042844 
3046.000000	96.052436 
3045.000000	96.062572 
3044.000000	96.071172 
3043.000000	96.077114 
3042.000000	96.081766 
3041.000000	96.088335 
3040.000000	96.098572 
3039.000000	96.110797 
3038.000000	96.122072 
3037.000000	96.131945 
3036.000000	96.143316 
3035.000000	96.159464 
3034.000000	96.180471 
3033.000000	96.203402 
3032.000000	96.226218 
3031.000000	96.250104 
3030.000000	96.276995 
3029.000000	96.305601 
3028.000000	96.331656 
3027.000000	96.352707 
3026.000000	96.370987 
3025.000000	96.390098 
3024.000000	96.410557 
3023.000000	96.430921 
3022.000000	96.452051 
3021.000000	96.476931 
3020.000000	96.506095 
3019.000000	96.536170 
3018.000000	96.564054 
3017.000000	96.590176 
3016.000000	96.616304 
3015.000000	96.642547 
3014.000000	96.668829 
3013.000000	96.697656 
3012.000000	96.732519 
3011.000000	96.773669 
3010.000000	96.817664 
3009.000000	96.861520 
3008.000000	96.905539 
3007.000000	96.951403 
3006.000000	96.998941 
3005.000000	97.046035 
3004.000000	97.091053 
3003.000000	97.134139 
3002.000000	97.176265 
3001.000000	97.218148 
3000.000000	97.260487 
2999.000000	97.304246 
2998.000000	97.349195 
2997.000000	97.391864 
2996.000000	97.426772 
2995.000000	97.452600 
2994.000000	97.478509 
2993.000000	97.522068 
2992.000000	97.596313 
2991.000000	97.695794 
2990.000000	97.795999 
2989.000000	97.869715 
2988.000000	97.906022 
2987.000000	97.914463 
2986.000000	97.913134 
2985.000000	97.914190 
2984.000000	97.919951 
2983.000000	97.928576 
2982.000000	97.939364 
2981.000000	97.952724 
2980.000000	97.967837 
2979.000000	97.981997 
2978.000000	97.991930 
2977.000000	97.995837 
2976.000000	97.995204 
2975.000000	97.994339 
2974.000000	97.995625 
2973.000000	97.993547 
2972.000000	97.974854 
2971.000000	97.927427 
2970.000000	97.849991 
2969.000000	97.752851 
2968.000000	97.649378 
2967.000000	97.547467 
2966.000000	97.448756 
2965.000000	97.353269 
2964.000000	97.262465 
2963.000000	97.178722 
2962.000000	97.104064 
2961.000000	97.039637 
2960.000000	96.984884 
2959.000000	96.936813 
2958.000000	96.891827 
2957.000000	96.849747 
2956.000000	96.815191 
2955.000000	96.793105 
2954.000000	96.782424 
2953.000000	96.775263 
2952.000000	96.763017 
2951.000000	96.742677 
2950.000000	96.716654 
2949.000000	96.687562 
2948.000000	96.654984 
2947.000000	96.617457 
2946.000000	96.576007 
2945.000000	96.534128 
2944.000000	96.494263 
2943.000000	96.455142 
2942.000000	96.412956 
2941.000000	96.364833 
2940.000000	96.311071 
2939.000000	96.254368 
2938.000000	96.197105 
2937.000000	96.139152 
2936.000000	96.078213 
2935.000000	96.012678 
2934.000000	95.944335 
2933.000000	95.877737 
2932.000000	95.816438 
2931.000000	95.760429 
2930.000000	95.708084 
2929.000000	95.660211 
2928.000000	95.620859 
2927.000000	95.594151 
2926.000000	95.582215 
2925.000000	95.586573 
2924.000000	95.609148 
2923.000000	95.649743 
2922.000000	95.703780 
2921.000000	95.765278 
2920.000000	95.832141 
2919.000000	95.906356 
2918.000000	95.988808 
2917.000000	96.076401 
2916.000000	96.165031 
2915.000000	96.252873 
2914.000000	96.338987 
2913.000000	96.420575 
2912.000000	96.494151 
2911.000000	96.558707 
2910.000000	96.615700 
2909.000000	96.666238 
2908.000000	96.710506 
2907.000000	96.750822 
2906.000000	96.793913 
2905.000000	96.848126 
2904.000000	96.916893 
2903.000000	96.992782 
2902.000000	97.058789 
2901.000000	97.096908 
2900.000000	97.099534 
2899.000000	97.074391 
2898.000000	97.038620 
2897.000000	97.008621 
2896.000000	96.993821 
2895.000000	96.996023 
2894.000000	97.010134 
2893.000000	97.025565 
2892.000000	97.031478 
2891.000000	97.024822 
2890.000000	97.013315 
2889.000000	97.008644 
2888.000000	97.016004 
2887.000000	97.030505 
2886.000000	97.043053 
2885.000000	97.047865 
2884.000000	97.043781 
2883.000000	97.030758 
2882.000000	97.008120 
2881.000000	96.976807 
2880.000000	96.941101 
2879.000000	96.906165 
2878.000000	96.874260 
2877.000000	96.844197 
2876.000000	96.813586 
2875.000000	96.780180 
2874.000000	96.742034 
2873.000000	96.699175 
2872.000000	96.655829 
2871.000000	96.618663 
2870.000000	96.590784 
2869.000000	96.567884 
2868.000000	96.541370 
2867.000000	96.504930 
2866.000000	96.457573 
2865.000000	96.401242 
2864.000000	96.336997 
2863.000000	96.263980 
2862.000000	96.181809 
2861.000000	96.093521 
2860.000000	96.005119 
2859.000000	95.921312 
2858.000000	95.842267 
2857.000000	95.766127 
2856.000000	95.694618 
2855.000000	95.634626 
2854.000000	95.594335 
2853.000000	95.579456 
2852.000000	95.592598 
2851.000000	95.632122 
2850.000000	95.689584 
2849.000000	95.751500 
2848.000000	95.807736 
2847.000000	95.857593 
2846.000000	95.905458 
2845.000000	95.952326 
2844.000000	95.994676 
2843.000000	96.030132 
2842.000000	96.059987 
2841.000000	96.085710 
2840.000000	96.106382 
2839.000000	96.120969 
2838.000000	96.130853 
2837.000000	96.138635 
2836.000000	96.145707 
2835.000000	96.151915 
2834.000000	96.156505 
2833.000000	96.158711 
2832.000000	96.158382 
2831.000000	96.156574 
2830.000000	96.154774 
2829.000000	96.153451 
2828.000000	96.152382 
2827.000000	96.152506 
2826.000000	96.156022 
2825.000000	96.163821 
2824.000000	96.173450 
2823.000000	96.180256 
2822.000000	96.180668 
2821.000000	96.174926 
2820.000000	96.167153 
2819.000000	96.162080 
2818.000000	96.160837 
2817.000000	96.160657 
2816.000000	96.159448 
2815.000000	96.159136 
2814.000000	96.162601 
2813.000000	96.168514 
2812.000000	96.171998 
2811.000000	96.170381 
2810.000000	96.165805 
2809.000000	96.161680 
2808.000000	96.158837 
2807.000000	96.156074 
2806.000000	96.152523 
2805.000000	96.148268 
2804.000000	96.143934 
2803.000000	96.140720 
2802.000000	96.139979 
2801.000000	96.141989 
2800.000000	96.145772 
2799.000000	96.150509 
2798.000000	96.156225 
2797.000000	96.162475 
2796.000000	96.167273 
2795.000000	96.168182 
2794.000000	96.164329 
2793.000000	96.157265 
2792.000000	96.150429 
2791.000000	96.147412 
2790.000000	96.149516 
2789.000000	96.154694 
2788.000000	96.159259 
2787.000000	96.161269 
2786.000000	96.161771 
2785.000000	96.162682 
2784.000000	96.164310 
2783.000000	96.165348 
2782.000000	96.164759 
2781.000000	96.162964 
2780.000000	96.161246 
2779.000000	96.160482 
2778.000000	96.160561 
2777.000000	96.160810 
2776.000000	96.160708 
2775.000000	96.160196 
2774.000000	96.159426 
2773.000000	96.158492 
2772.000000	96.157507 
2771.000000	96.156699 
2770.000000	96.156192 
2769.000000	96.155857 
2768.000000	96.155593 
2767.000000	96.155585 
2766.000000	96.156047 
2765.000000	96.156762 
2764.000000	96.157169 
2763.000000	96.156968 
2762.000000	96.156391 
2761.000000	96.155841 
2760.000000	96.155448 
2759.000000	96.155052 
2758.000000	96.154507 
2757.000000	96.153878 
2756.000000	96.153423 
2755.000000	96.153363 
2754.000000	96.153586 
2753.000000	96.153615 
2752.000000	96.153073 
2751.000000	96.152208 
2750.000000	96.151772 
2749.000000	96.152209 
2748.000000	96.153271 
2747.000000	96.154222 
2746.000000	96.154580 
2745.000000	96.154392 
2744.000000	96.153922 
2743.000000	96.153324 
2742.000000	96.152605 
2741.000000	96.151785 
2740.000000	96.150944 
2739.000000	96.150175 
2738.000000	96.149547 
2737.000000	96.149109 
2736.000000	96.148908 
2735.000000	96.148966 
2734.000000	96.149175 
2733.000000	96.149278 
2732.000000	96.149074 
2731.000000	96.148643 
2730.000000	96.148290 
2729.000000	96.148223 
2728.000000	96.148348 
2727.000000	96.148414 
2726.000000	96.148324 
2725.000000	96.148195 
2724.000000	96.148135 
2723.000000	96.148107 
2722.000000	96.147991 
2721.000000	96.147680 
2720.000000	96.147122 
2719.000000	96.146368 
2718.000000	96.145631 
2717.000000	96.145205 
2716.000000	96.145286 
2715.000000	96.145860 
2714.000000	96.146676 
2713.000000	96.147296 
2712.000000	96.147307 
2711.000000	96.146628 
2710.000000	96.145634 
2709.000000	96.144878 
2708.000000	96.144693 
2707.000000	96.145100 
2706.000000	96.145859 
2705.000000	96.146510 
2704.000000	96.146565 
2703.000000	96.145907 
2702.000000	96.144999 
2701.000000	96.144458 
2700.000000	96.144445 
2699.000000	96.144592 
2698.000000	96.144517 
2697.000000	96.144302 
2696.000000	96.144405 
2695.000000	96.145108 
2694.000000	96.146006 
2693.000000	96.146071 
2692.000000	96.144379 
2691.000000	96.140973 
2690.000000	96.137190 
2689.000000	96.134831 
2688.000000	96.134758 
2687.000000	96.136403 
2686.000000	96.138490 
2685.000000	96.140258 
2684.000000	96.141770 
2683.000000	96.143059 
2682.000000	96.143642 
2681.000000	96.143237 
2680.000000	96.142543 
2679.000000	96.142602 
2678.000000	96.143455 
2677.000000	96.144119 
2676.000000	96.143990 
2675.000000	96.143567 
2674.000000	96.143551 
2673.000000	96.144098 
2672.000000	96.145347 
2671.000000	96.147771 
2670.000000	96.151191 
2669.000000	96.154098 
2668.000000	96.155042 
2667.000000	96.154378 
2666.000000	96.153897 
2665.000000	96.154860 
2664.000000	96.157113 
2663.000000	96.159897 
2662.000000	96.162633 
2661.000000	96.164889 
2660.000000	96.166487 
2659.000000	96.167887 
2658.000000	96.169749 
2657.000000	96.171918 
2656.000000	96.173418 
2655.000000	96.173662 
2654.000000	96.173059 
2653.000000	96.172391 
2652.000000	96.172100 
2651.000000	96.172372 
2650.000000	96.173349 
2649.000000	96.174932 
2648.000000	96.176694 
2647.000000	96.178221 
2646.000000	96.179411 
2645.000000	96.180394 
2644.000000	96.181387 
2643.000000	96.182563 
2642.000000	96.183865 
2641.000000	96.185013 
2640.000000	96.185843 
2639.000000	96.186552 
2638.000000	96.187438 
2637.000000	96.188485 
2636.000000	96.189445 
2635.000000	96.190238 
2634.000000	96.191024 
2633.000000	96.191940 
2632.000000	96.192937 
2631.000000	96.193911 
2630.000000	96.194836 
2629.000000	96.195741 
2628.000000	96.196619 
2627.000000	96.197439 
2626.000000	96.198208 
2625.000000	96.198986 
2624.000000	96.199802 
2623.000000	96.200620 
2622.000000	96.201385 
2621.000000	96.202081 
2620.000000	96.202724 
2619.000000	96.203366 
2618.000000	96.204076 
2617.000000	96.204887 
2616.000000	96.205726 
2615.000000	96.206476 
2614.000000	96.207107 
2613.000000	96.207690 
2612.000000	96.208282 
2611.000000	96.208865 
2610.000000	96.209458 
2609.000000	96.210217 
2608.000000	96.211283 
2607.000000	96.212522 
2606.000000	96.213543 
2605.000000	96.214087 
2604.000000	96.214292 
2603.000000	96.214531 
2602.000000	96.214953 
2601.000000	96.215401 
2600.000000	96.215882 
2599.000000	96.216815 
2598.000000	96.218497 
2597.000000	96.220566 
2596.000000	96.222296 
2595.000000	96.223504 
2594.000000	96.224703 
2593.000000	96.226318 
2592.000000	96.228035 
2591.000000	96.229214 
2590.000000	96.229714 
2589.000000	96.230058 
2588.000000	96.230879 
2587.000000	96.232376 
2586.000000	96.234263 
2585.000000	96.236001 
2584.000000	96.237162 
2583.000000	96.237723 
2582.000000	96.237936 
2581.000000	96.237915 
2580.000000	96.237556 
2579.000000	96.237118 
2578.000000	96.237522 
2577.000000	96.239516 
2576.000000	96.242802 
2575.000000	96.246191 
2574.000000	96.248748 
2573.000000	96.250493 
2572.000000	96.251948 
2571.000000	96.253495 
2570.000000	96.255160 
2569.000000	96.256767 
2568.000000	96.258110 
2567.000000	96.259097 
2566.000000	96.259871 
2565.000000	96.260788 
2564.000000	96.262142 
2563.000000	96.263896 
2562.000000	96.265674 
2561.000000	96.267079 
2560.000000	96.268030 
2559.000000	96.268774 
2558.000000	96.269629 
2557.000000	96.270711 
2556.000000	96.271946 
2555.000000	96.273235 
2554.000000	96.274522 
2553.000000	96.275748 
2552.000000	96.276875 
2551.000000	96.277956 
2550.000000	96.279089 
2549.000000	96.280258 
2548.000000	96.281313 
2547.000000	96.282179 
2546.000000	96.282990 
2545.000000	96.283941 
2544.000000	96.285047 
2543.000000	96.286120 
2542.000000	96.287006 
2541.000000	96.287746 
2540.000000	96.288512 
2539.000000	96.289434 
2538.000000	96.290485 
2537.000000	96.291560 
2536.000000	96.292562 
2535.000000	96.293462 
2534.000000	96.294268 
2533.000000	96.294997 
2532.000000	96.295679 
2531.000000	96.296388 
2530.000000	96.297208 
2529.000000	96.298157 
2528.000000	96.299175 
2527.000000	96.300181 
2526.000000	96.301151 
2525.000000	96.302115 
2524.000000	96.303105 
2523.000000	96.304136 
2522.000000	96.305195 
2521.000000	96.306240 
2520.000000	96.307225 
2519.000000	96.308132 
2518.000000	96.308990 
2517.000000	96.309860 
2516.000000	96.310789 
2515.000000	96.311784 
2514.000000	96.312818 
2513.000000	96.313848 
2512.000000	96.314856 
2511.000000	96.315862 
2510.000000	96.316900 
2509.000000	96.317996 
2508.000000	96.319154 
2507.000000	96.320367 
2506.000000	96.321612 
2505.000000	96.322847 
2504.000000	96.324049 
2503.000000	96.325250 
2502.000000	96.326516 
2501.000000	96.327866 
2500.000000	96.329258 
2499.000000	96.330628 
2498.000000	96.331951 
2497.000000	96.333241 
2496.000000	96.334516 
2495.000000	96.335772 
2494.000000	96.337005 
2493.000000	96.338246 
2492.000000	96.339546 
2491.000000	96.340930 
2490.000000	96.342379 
2489.000000	96.343840 
2488.000000	96.345273 
2487.000000	96.346681 
2486.000000	96.348092 
2485.000000	96.349534 
2484.000000	96.351013 
2483.000000	96.352496 
2482.000000	96.353931 
2481.000000	96.355311 
2480.000000	96.356703 
2479.000000	96.358198 
2478.000000	96.359811 
2477.000000	96.361480 
2476.000000	96.363155 
2475.000000	96.364850 
2474.000000	96.366577 
2473.000000	96.368272 
2472.000000	96.369860 
2471.000000	96.371398 
2470.000000	96.373051 
2469.000000	96.374890 
2468.000000	96.376737 
2467.000000	96.378327 
2466.000000	96.379584 
2465.000000	96.380681 
2464.000000	96.381905 
2463.000000	96.383398 
2462.000000	96.385081 
2461.000000	96.386700 
2460.000000	96.388042 
2459.000000	96.389112 
2458.000000	96.390127 
2457.000000	96.391296 
2456.000000	96.392672 
2455.000000	96.394216 
2454.000000	96.395912 
2453.000000	96.397759 
2452.000000	96.399661 
2451.000000	96.401403 
2450.000000	96.402830 
2449.000000	96.404098 
2448.000000	96.405693 
2447.000000	96.408011 
2446.000000	96.410852 
2445.000000	96.413436 
2444.000000	96.415258 
2443.000000	96.416641 
2442.000000	96.418223 
2441.000000	96.419951 
2440.000000	96.421187 
2439.000000	96.421709 
2438.000000	96.422060 
2437.000000	96.422844 
2436.000000	96.424122 
2435.000000	96.425685 
2434.000000	96.427446 
2433.000000	96.429370 
2432.000000	96.431309 
2431.000000	96.433156 
2430.000000	96.434971 
2429.000000	96.436777 
2428.000000	96.438408 
2427.000000	96.439679 
2426.000000	96.440594 
2425.000000	96.441305 
2424.000000	96.442038 
2423.000000	96.443038 
2422.000000	96.444331 
2421.000000	96.445616 
2420.000000	96.446743 
2419.000000	96.448174 
2418.000000	96.450514 
2417.000000	96.453688 
2416.000000	96.456933 
2415.000000	96.459664 
2414.000000	96.461854 
2413.000000	96.463481 
2412.000000	96.464478 
2411.000000	96.465257 
2410.000000	96.466579 
2409.000000	96.468660 
2408.000000	96.470862 
2407.000000	96.472490 
2406.000000	96.473623 
2405.000000	96.474807 
2404.000000	96.476224 
2403.000000	96.477541 
2402.000000	96.478568 
2401.000000	96.479619 
2400.000000	96.481124 
2399.000000	96.483148 
2398.000000	96.485360 
2397.000000	96.487330 
2396.000000	96.488828 
2395.000000	96.489925 
2394.000000	96.490855 
2393.000000	96.491943 
2392.000000	96.493429 
2391.000000	96.495373 
2390.000000	96.497644 
2389.000000	96.499966 
2388.000000	96.502177 
2387.000000	96.504290 
2386.000000	96.506344 
2385.000000	96.508352 
2384.000000	96.510350 
2383.000000	96.512391 
2382.000000	96.514490 
2381.000000	96.516615 
2380.000000	96.518748 
2379.000000	96.520902 
2378.000000	96.523096 
2377.000000	96.525340 
2376.000000	96.527640 
2375.000000	96.530002 
2374.000000	96.532435 
2373.000000	96.534939 
2372.000000	96.537500 
2371.000000	96.540091 
2370.000000	96.542694 
2369.000000	96.545305 
2368.000000	96.547937 
2367.000000	96.550607 
2366.000000	96.553334 
2365.000000	96.556136 
2364.000000	96.559016 
2363.000000	96.561966 
2362.000000	96.564969 
2361.000000	96.568011 
2360.000000	96.571085 
2359.000000	96.574186 
2358.000000	96.577308 
2357.000000	96.580441 
2356.000000	96.583573 
2355.000000	96.586692 
2354.000000	96.589794 
2353.000000	96.592889 
2352.000000	96.596002 
2351.000000	96.599145 
2350.000000	96.602299 
2349.000000	96.605454 
2348.000000	96.608575 
2347.000000	96.611572 
2346.000000	96.614335 
2345.000000	96.616954 
2344.000000	96.619693 
2343.000000	96.622738 
2342.000000	96.625937 
2341.000000	96.628981 
2340.000000	96.631638 
2339.000000	96.634053 
2338.000000	96.636561 
2337.000000	96.639365 
2336.000000	96.642495 
2335.000000	96.645745 
2334.000000	96.648316 
2333.000000	96.649698 
2332.000000	96.650539 
2331.000000	96.651646 
2330.000000	96.652920 
2329.000000	96.653553 
2328.000000	96.654074 
2327.000000	96.655048 
2326.000000	96.656283 
2325.000000	96.657552 
2324.000000	96.659287 
2323.000000	96.662528 
2322.000000	96.666832 
2321.000000	96.671454 
2320.000000	96.675696 
2319.000000	96.679200 
2318.000000	96.681085 
2317.000000	96.680216 
2316.000000	96.676632 
2315.000000	96.671949 
2314.000000	96.668950 
2313.000000	96.669239 
2312.000000	96.672114 
2311.000000	96.674442 
2310.000000	96.673264 
2309.000000	96.667874 
2308.000000	96.659789 
2307.000000	96.651378 
2306.000000	96.644596 
2305.000000	96.641182 
2304.000000	96.642006 
2303.000000	96.646258 
2302.000000	96.651616 
2301.000000	96.655620 
2300.000000	96.656976 
2299.000000	96.655820 
2298.000000	96.653399 
2297.000000	96.650950 
2296.000000	96.649186 
2295.000000	96.647978 
2294.000000	96.646985 
2293.000000	96.645833 
2292.000000	96.644207 
2291.000000	96.641953 
2290.000000	96.639498 
2289.000000	96.637955 
2288.000000	96.638160 
2287.000000	96.639783 
2286.000000	96.641481 
2285.000000	96.642181 
2284.000000	96.641752 
2283.000000	96.640775 
2282.000000	96.639855 
2281.000000	96.639412 
2280.000000	96.639610 
2279.000000	96.640286 
2278.000000	96.640952 
2277.000000	96.641210 
2276.000000	96.641216 
2275.000000	96.641469 
2274.000000	96.642151 
2273.000000	96.642795 
2272.000000	96.642802 
2271.000000	96.642140 
2270.000000	96.641476 
2269.000000	96.641534 
2268.000000	96.642543 
2267.000000	96.644249 
2266.000000	96.646077 
2265.000000	96.647470 
2264.000000	96.648224 
2263.000000	96.648554 
2262.000000	96.648878 
2261.000000	96.649492 
2260.000000	96.650420 
2259.000000	96.651536 
2258.000000	96.652695 
2257.000000	96.653816 
2256.000000	96.654873 
2255.000000	96.655869 
2254.000000	96.656811 
2253.000000	96.657730 
2252.000000	96.658682 
2251.000000	96.659693 
2250.000000	96.660745 
2249.000000	96.661811 
2248.000000	96.662897 
2247.000000	96.664016 
2246.000000	96.665160 
2245.000000	96.666317 
2244.000000	96.667488 
2243.000000	96.668684 
2242.000000	96.669906 
2241.000000	96.671143 
2240.000000	96.672379 
2239.000000	96.673599 
2238.000000	96.674799 
2237.000000	96.676012 
2236.000000	96.677274 
2235.000000	96.678563 
2234.000000	96.679817 
2233.000000	96.681012 
2232.000000	96.682200 
2231.000000	96.683452 
2230.000000	96.684793 
2229.000000	96.686158 
2228.000000	96.687412 
2227.000000	96.688468 
2226.000000	96.689432 
2225.000000	96.690593 
2224.000000	96.692148 
2223.000000	96.694026 
2222.000000	96.695963 
2221.000000	96.697787 
2220.000000	96.699535 
2219.000000	96.701294 
2218.000000	96.703040 
2217.000000	96.704637 
2216.000000	96.705960 
2215.000000	96.707025 
2214.000000	96.708057 
2213.000000	96.709370 
2212.000000	96.711095 
2211.000000	96.713028 
2210.000000	96.714823 
2209.000000	96.716417 
2208.000000	96.718130 
2207.000000	96.720254 
2206.000000	96.722578 
2205.000000	96.724474 
2204.000000	96.725480 
2203.000000	96.725653 
2202.000000	96.725445 
2201.000000	96.725388 
2200.000000	96.725938 
2199.000000	96.727397 
2198.000000	96.729697 
2197.000000	96.732339 
2196.000000	96.734781 
2195.000000	96.736931 
2194.000000	96.739061 
2193.000000	96.741324 
2192.000000	96.743533 
2191.000000	96.745351 
2190.000000	96.746579 
2189.000000	96.747328 
2188.000000	96.748104 
2187.000000	96.749595 
2186.000000	96.752110 
2185.000000	96.755199 
2184.000000	96.757915 
2183.000000	96.759662 
2182.000000	96.760507 
2181.000000	96.760857 
2180.000000	96.761124 
2179.000000	96.761646 
2178.000000	96.762612 
2177.000000	96.763850 
2176.000000	96.764979 
2175.000000	96.765952 
2174.000000	96.767132 
2173.000000	96.768643 
2172.000000	96.770060 
2171.000000	96.771084 
2170.000000	96.772206 
2169.000000	96.774185 
2168.000000	96.777071 
2167.000000	96.780112 
2166.000000	96.782558 
2165.000000	96.784288 
2164.000000	96.785568 
2163.000000	96.786606 
2162.000000	96.787443 
2161.000000	96.788093 
2160.000000	96.788715 
2159.000000	96.789655 
2158.000000	96.791206 
2157.000000	96.793219 
2156.000000	96.795071 
2155.000000	96.796254 
2154.000000	96.796921 
2153.000000	96.797682 
2152.000000	96.798864 
2151.000000	96.800229 
2150.000000	96.801460 
2149.000000	96.802645 
2148.000000	96.804081 
2147.000000	96.805832 
2146.000000	96.807641 
2145.000000	96.809191 
2144.000000	96.810344 
2143.000000	96.811201 
2142.000000	96.812030 
2141.000000	96.813082 
2140.000000	96.814429 
2139.000000	96.815959 
2138.000000	96.817564 
2137.000000	96.819264 
2136.000000	96.821145 
2135.000000	96.823212 
2134.000000	96.825304 
2133.000000	96.827149 
2132.000000	96.828557 
2131.000000	96.829585 
2130.000000	96.830498 
2129.000000	96.831540 
2128.000000	96.832760 
2127.000000	96.834067 
2126.000000	96.835318 
2125.000000	96.836369 
2124.000000	96.837149 
2123.000000	96.837758 
2122.000000	96.838446 
2121.000000	96.839411 
2120.000000	96.840648 
2119.000000	96.842000 
2118.000000	96.843251 
2117.000000	96.844301 
2116.000000	96.845186 
2115.000000	96.845999 
2114.000000	96.846810 
2113.000000	96.847655 
2112.000000	96.848547 
2111.000000	96.849455 
2110.000000	96.850312 
2109.000000	96.851073 
2108.000000	96.851772 
2107.000000	96.852501 
2106.000000	96.853314 
2105.000000	96.854156 
2104.000000	96.854904 
2103.000000	96.855494 
2102.000000	96.855979 
2101.000000	96.856492 
2100.000000	96.857110 
2099.000000	96.857799 
2098.000000	96.858461 
2097.000000	96.859029 
2096.000000	96.859525 
2095.000000	96.860020 
2094.000000	96.860562 
2093.000000	96.861131 
2092.000000	96.861658 
2091.000000	96.862105 
2090.000000	96.862499 
2089.000000	96.862902 
2088.000000	96.863366 
2087.000000	96.863932 
2086.000000	96.864609 
2085.000000	96.865342 
2084.000000	96.866062 
2083.000000	96.866799 
2082.000000	96.867649 
2081.000000	96.868586 
2080.000000	96.869388 
2079.000000	96.869890 
2078.000000	96.870194 
2077.000000	96.870530 
2076.000000	96.870893 
2075.000000	96.871140 
2074.000000	96.871334 
2073.000000	96.871706 
2072.000000	96.872334 
2071.000000	96.873027 
2070.000000	96.873554 
2069.000000	96.873927 
2068.000000	96.874342 
2067.000000	96.874927 
2066.000000	96.875650 
2065.000000	96.876420 
2064.000000	96.877145 
2063.000000	96.877729 
2062.000000	96.878153 
2061.000000	96.878514 
2060.000000	96.878905 
2059.000000	96.879261 
2058.000000	96.879429 
2057.000000	96.879388 
2056.000000	96.879330 
2055.000000	96.879486 
2054.000000	96.879944 
2053.000000	96.880609 
2052.000000	96.881267 
2051.000000	96.881726 
2050.000000	96.881959 
2049.000000	96.882128 
2048.000000	96.882447 
2047.000000	96.882946 
2046.000000	96.883407 
2045.000000	96.883564 
2044.000000	96.883336 
2043.000000	96.882927 
2042.000000	96.882701 
2041.000000	96.882864 
2040.000000	96.883288 
2039.000000	96.883640 
2038.000000	96.883777 
2037.000000	96.883900 
2036.000000	96.884301 
2035.000000	96.885045 
2034.000000	96.885904 
2033.000000	96.886592 
2032.000000	96.887055 
2031.000000	96.887467 
2030.000000	96.887945 
2029.000000	96.888305 
2028.000000	96.888231 
2027.000000	96.887671 
2026.000000	96.887009 
2025.000000	96.886762 
2024.000000	96.887062 
2023.000000	96.887530 
2022.000000	96.887679 
2021.000000	96.887393 
2020.000000	96.886929 
2019.000000	96.886542 
2018.000000	96.886294 
2017.000000	96.886202 
2016.000000	96.886465 
2015.000000	96.887411 
2014.000000	96.889222 
2013.000000	96.891603 
2012.000000	96.893682 
2011.000000	96.894520 
2010.000000	96.893860 
2009.000000	96.892327 
2008.000000	96.890904 
2007.000000	96.890137 
2006.000000	96.889992 
2005.000000	96.890275 
2004.000000	96.890874 
2003.000000	96.891775 
2002.000000	96.893039 
2001.000000	96.894708 
2000.000000	96.896531 
1999.000000	96.897776 
1998.000000	96.897680 
1997.000000	96.896223 
1996.000000	96.894486 
1995.000000	96.893870 
1994.000000	96.894807 
1993.000000	96.896493 
1992.000000	96.897884 
1991.000000	96.898893 
1990.000000	96.900153 
1989.000000	96.901868 
1988.000000	96.903509 
1987.000000	96.904617 
1986.000000	96.905456 
1985.000000	96.906641 
1984.000000	96.908383 
1983.000000	96.910512 
1982.000000	96.912977 
1981.000000	96.915803 
1980.000000	96.918605 
1979.000000	96.920661 
1978.000000	96.921732 
1977.000000	96.922516 
1976.000000	96.924029 
1975.000000	96.926493 
1974.000000	96.929040 
1973.000000	96.930598 
1972.000000	96.930967 
1971.000000	96.930968 
1970.000000	96.931619 
1969.000000	96.933191 
1968.000000	96.935069 
1967.000000	96.936460 
1966.000000	96.937336 
1965.000000	96.938563 
1964.000000	96.940950 
1963.000000	96.944307 
1962.000000	96.947624 
1961.000000	96.950211 
1960.000000	96.952295 
1959.000000	96.954305 
1958.000000	96.956042 
1957.000000	96.957133 
1956.000000	96.957917 
1955.000000	96.958999 
1954.000000	96.960137 
1953.000000	96.960501 
1952.000000	96.960038 
1951.000000	96.959841 
1950.000000	96.960850 
1949.000000	96.962887 
1948.000000	96.965199 
1947.000000	96.967490 
1946.000000	96.970032 
1945.000000	96.972919 
1944.000000	96.975603 
1943.000000	96.977223 
1942.000000	96.977365 
1941.000000	96.976524 
1940.000000	96.975924 
1939.000000	96.976832 
1938.000000	96.979724 
1937.000000	96.983792 
1936.000000	96.987366 
1935.000000	96.989157 
1934.000000	96.989257 
1933.000000	96.989046 
1932.000000	96.989772 
1931.000000	96.991141 
1930.000000	96.991674 
1929.000000	96.990782 
1928.000000	96.989559 
1927.000000	96.989475 
1926.000000	96.990751 
1925.000000	96.992147 
1924.000000	96.992588 
1923.000000	96.992247 
1922.000000	96.992200 
1921.000000	96.993173 
1920.000000	96.994749 
1919.000000	96.995579 
1918.000000	96.994118 
1917.000000	96.990027 
1916.000000	96.984862 
1915.000000	96.980912 
1914.000000	96.979451 
1913.000000	96.979998 
1912.000000	96.981164 
1911.000000	96.982228 
1910.000000	96.983333 
1909.000000	96.984277 
1908.000000	96.983761 
1907.000000	96.980774 
1906.000000	96.976098 
1905.000000	96.971650 
1904.000000	96.969018 
1903.000000	96.968535 
1902.000000	96.969408 
1901.000000	96.970162 
1900.000000	96.969145 
1899.000000	96.965779 
1898.000000	96.961396 
1897.000000	96.958121 
1896.000000	96.956829 
1895.000000	96.956424 
1894.000000	96.955451 
1893.000000	96.953852 
1892.000000	96.952642 
1891.000000	96.952546 
1890.000000	96.953394 
1889.000000	96.954519 
1888.000000	96.955216 
1887.000000	96.955061 
1886.000000	96.954313 
1885.000000	96.953923 
1884.000000	96.954900 
1883.000000	96.957330 
1882.000000	96.959992 
1881.000000	96.961359 
1880.000000	96.961089 
1879.000000	96.960387 
1878.000000	96.960659 
1877.000000	96.961881 
1876.000000	96.963117 
1875.000000	96.964190 
1874.000000	96.965497 
1873.000000	96.966496 
1872.000000	96.965856 
1871.000000	96.963547 
1870.000000	96.961975 
1869.000000	96.963779 
1868.000000	96.968424 
1867.000000	96.972715 
1866.000000	96.974938 
1865.000000	96.976017 
1864.000000	96.977288 
1863.000000	96.979114 
1862.000000	96.981280 
1861.000000	96.983717 
1860.000000	96.986412 
1859.000000	96.989244 
1858.000000	96.992185 
1857.000000	96.995118 
1856.000000	96.997578 
1855.000000	96.999328 
1854.000000	97.000760 
1853.000000	97.002595 
1852.000000	97.005022 
1851.000000	97.007418 
1850.000000	97.009331 
1849.000000	97.010903 
1848.000000	97.012463 
1847.000000	97.014116 
1846.000000	97.015973 
1845.000000	97.018428 
1844.000000	97.021695 
1843.000000	97.025150 
1842.000000	97.027648 
1841.000000	97.028708 
1840.000000	97.028782 
1839.000000	97.028733 
1838.000000	97.029242 
1837.000000	97.030479 
1836.000000	97.032253 
1835.000000	97.034092 
1834.000000	97.035381 
1833.000000	97.036270 
1832.000000	97.038224 
1831.000000	97.042580 
1830.000000	97.047981 
1829.000000	97.050803 
1828.000000	97.049776 
1827.000000	97.047401 
1826.000000	97.046629 
1825.000000	97.047674 
1824.000000	97.048796 
1823.000000	97.049323 
1822.000000	97.050229 
1821.000000	97.052185 
1820.000000	97.054589 
1819.000000	97.056644 
1818.000000	97.058177 
1817.000000	97.059233 
1816.000000	97.060148 
1815.000000	97.061316 
1814.000000	97.062515 
1813.000000	97.062869 
1812.000000	97.062171 
1811.000000	97.062104 
1810.000000	97.064651 
1809.000000	97.069844 
1808.000000	97.075650 
1807.000000	97.080341 
1806.000000	97.084775 
1805.000000	97.090556 
1804.000000	97.096630 
1803.000000	97.099063 
1802.000000	97.095705 
1801.000000	97.090094 
1800.000000	97.087302 
1799.000000	97.088378 
1798.000000	97.091148 
1797.000000	97.093694 
1796.000000	97.095605 
1795.000000	97.097996 
1794.000000	97.103321 
1793.000000	97.113298 
1792.000000	97.125990 
1791.000000	97.136577 
1790.000000	97.142139 
1789.000000	97.144892 
1788.000000	97.149512 
1787.000000	97.158071 
1786.000000	97.168572 
1785.000000	97.177478 
1784.000000	97.183996 
1783.000000	97.190420 
1782.000000	97.199101 
1781.000000	97.208748 
1780.000000	97.214086 
1779.000000	97.213387 
1778.000000	97.211222 
1777.000000	97.212133 
1776.000000	97.215746 
1775.000000	97.220952 
1774.000000	97.231743 
1773.000000	97.252759 
1772.000000	97.278506 
1771.000000	97.297893 
1770.000000	97.309291 
1769.000000	97.319284 
1768.000000	97.333012 
1767.000000	97.349193 
1766.000000	97.363815 
1765.000000	97.376718 
1764.000000	97.391129 
1763.000000	97.408512 
1762.000000	97.425583 
1761.000000	97.437067 
1760.000000	97.441153 
1759.000000	97.441018 
1758.000000	97.440458 
1757.000000	97.439822 
1756.000000	97.436126 
1755.000000	97.428420 
1754.000000	97.419458 
1753.000000	97.411046 
1752.000000	97.401339 
1751.000000	97.390128 
1750.000000	97.381484 
1749.000000	97.377621 
1748.000000	97.377731 
1747.000000	97.380602 
1746.000000	97.387091 
1745.000000	97.398766 
1744.000000	97.414850 
1743.000000	97.432872 
1742.000000	97.451639 
1741.000000	97.473901 
1740.000000	97.502074 
1739.000000	97.530095 
1738.000000	97.547537 
1737.000000	97.551319 
1736.000000	97.545772 
1735.000000	97.535119 
1734.000000	97.522911 
1733.000000	97.515371 
1732.000000	97.514537 
1731.000000	97.519314 
1730.000000	97.529646 
1729.000000	97.541484 
1728.000000	97.548525 
1727.000000	97.547102 
1726.000000	97.538693 
1725.000000	97.526373 
1724.000000	97.512361 
1723.000000	97.498236 
1722.000000	97.483172 
1721.000000	97.465590 
1720.000000	97.445037 
1719.000000	97.420896 
1718.000000	97.391779 
1717.000000	97.362583 
1716.000000	97.340972 
1715.000000	97.324763 
1714.000000	97.307939 
1713.000000	97.288196 
1712.000000	97.265855 
1711.000000	97.241971 
1710.000000	97.217332 
1709.000000	97.194004 
1708.000000	97.174525 
1707.000000	97.159811 
1706.000000	97.148214 
1705.000000	97.135863 
1704.000000	97.119292 
1703.000000	97.097130 
1702.000000	97.072862 
1701.000000	97.056548 
1700.000000	97.052679 
1699.000000	97.050919 
1698.000000	97.044950 
1697.000000	97.044961 
1696.000000	97.058601 
1695.000000	97.074135 
1694.000000	97.075084 
1693.000000	97.061876 
1692.000000	97.045710 
1691.000000	97.034339 
1690.000000	97.028637 
1689.000000	97.025944 
1688.000000	97.023622 
1687.000000	97.020688 
1686.000000	97.019420 
1685.000000	97.020473 
1684.000000	97.017594 
1683.000000	97.008657 
1682.000000	96.998732 
1681.000000	96.991041 
1680.000000	96.986955 
1679.000000	96.986077 
1678.000000	96.988687 
1677.000000	96.995389 
1676.000000	97.003370 
1675.000000	97.006464 
1674.000000	97.002841 
1673.000000	96.996383 
1672.000000	96.990539 
1671.000000	96.987146 
1670.000000	96.986645 
1669.000000	96.988790 
1668.000000	96.991459 
1667.000000	96.990694 
1666.000000	96.984891 
1665.000000	96.976396 
1664.000000	96.969688 
1663.000000	96.967440 
1662.000000	96.968435 
1661.000000	96.970315 
1660.000000	96.971432 
1659.000000	96.971898 
1658.000000	96.972338 
1657.000000	96.972491 
1656.000000	96.971209 
1655.000000	96.968526 
1654.000000	96.966044 
1653.000000	96.964508 
1652.000000	96.964537 
1651.000000	96.965084 
1650.000000	96.964955 
1649.000000	96.965053 
1648.000000	96.965543 
1647.000000	96.965718 
1646.000000	96.965587 
1645.000000	96.965700 
1644.000000	96.966045 
1643.000000	96.966344 
1642.000000	96.966454 
1641.000000	96.966435 
1640.000000	96.966412 
1639.000000	96.966492 
1638.000000	96.966705 
1637.000000	96.967016 
1636.000000	96.967373 
1635.000000	96.967748 
1634.000000	96.968150 
1633.000000	96.968590 
1632.000000	96.969082 
1631.000000	96.969635 
1630.000000	96.970248 
1629.000000	96.970914 
1628.000000	96.971621 
1627.000000	96.972359 
1626.000000	96.973123 
1625.000000	96.973919 
1624.000000	96.974758 
1623.000000	96.975644 
1622.000000	96.976571 
1621.000000	96.977522 
1620.000000	96.978490 
1619.000000	96.979483 
1618.000000	96.980512 
1617.000000	96.981589 
1616.000000	96.982734 
1615.000000	96.983876 
1614.000000	96.984869 
1613.000000	96.985714 
1612.000000	96.986581 
1611.000000	96.987612 
1610.000000	96.988842 
1609.000000	96.990184 
1608.000000	96.991434 
1607.000000	96.992384 
1606.000000	96.993038 
1605.000000	96.993670 
1604.000000	96.994495 
1603.000000	96.995639 
1602.000000	96.997123 
1601.000000	96.998513 
1600.000000	96.999143 
1599.000000	96.999021 
1598.000000	96.999120 
1597.000000	97.000345 
1596.000000	97.002644 
1595.000000	97.005425 
1594.000000	97.008259 
1593.000000	97.010716 
1592.000000	97.012133 
1591.000000	97.012298 
1590.000000	97.011895 
1589.000000	97.011623 
1588.000000	97.011386 
1587.000000	97.011034 
1586.000000	97.010809 
1585.000000	97.010720 
1584.000000	97.010005 
1583.000000	97.008223 
1582.000000	97.006845 
1581.000000	97.007406 
1580.000000	97.009366 
1579.000000	97.011576 
1578.000000	97.014668 
1577.000000	97.019290 
1576.000000	97.022459 
1575.000000	97.020815 
1574.000000	97.015209 
1573.000000	97.008319 
1572.000000	97.002031 
1571.000000	96.997941 
1570.000000	96.997127 
1569.000000	96.998571 
1568.000000	96.999082 
1567.000000	96.996735 
1566.000000	96.992934 
1565.000000	96.990262 
1564.000000	96.989392 
1563.000000	96.988757 
1562.000000	96.987226 
1561.000000	96.984690 
1560.000000	96.981537 
1559.000000	96.976592 
1558.000000	96.971990 
1557.000000	96.970040 
1556.000000	96.967105 
1555.000000	96.961718 
1554.000000	96.955536 
1553.000000	96.951235 
1552.000000	96.948881 
1551.000000	96.946293 
1550.000000	96.941834 
1549.000000	96.936152 
1548.000000	96.930990 
1547.000000	96.926675 
1546.000000	96.922730 
1545.000000	96.919421 
1544.000000	96.917628 
1543.000000	96.917428 
1542.000000	96.917946 
1541.000000	96.917783 
1540.000000	96.914557 
1539.000000	96.908330 
1538.000000	96.902116 
1537.000000	96.896674 
1536.000000	96.891317 
1535.000000	96.885564 
1534.000000	96.879837 
1533.000000	96.875745 
1532.000000	96.873472 
1531.000000	96.870863 
1530.000000	96.866897 
1529.000000	96.863258 
1528.000000	96.861853 
1527.000000	96.862225 
1526.000000	96.862221 
1525.000000	96.861041 
1524.000000	96.859130 
1523.000000	96.856364 
1522.000000	96.851447 
1521.000000	96.844697 
1520.000000	96.839190 
1519.000000	96.836277 
1518.000000	96.835502 
1517.000000	96.835181 
1516.000000	96.832639 
1515.000000	96.827836 
1514.000000	96.823427 
1513.000000	96.821560 
1512.000000	96.821827 
1511.000000	96.821691 
1510.000000	96.819477 
1509.000000	96.816211 
1508.000000	96.815654 
1507.000000	96.817771 
1506.000000	96.816237 
1505.000000	96.810382 
1504.000000	96.803952 
1503.000000	96.800546 
1502.000000	96.801477 
1501.000000	96.805452 
1500.000000	96.811006 
1499.000000	96.818718 
1498.000000	96.827805 
1497.000000	96.833551 
1496.000000	96.831068 
1495.000000	96.819604 
1494.000000	96.802646 
1493.000000	96.786206 
1492.000000	96.774961 
1491.000000	96.769252 
1490.000000	96.765396 
1489.000000	96.761021 
1488.000000	96.756529 
1487.000000	96.753315 
1486.000000	96.753346 
1485.000000	96.757085 
1484.000000	96.761304 
1483.000000	96.760600 
1482.000000	96.752537 
1481.000000	96.741293 
1480.000000	96.734844 
1479.000000	96.736026 
1478.000000	96.739896 
1477.000000	96.738552 
1476.000000	96.727867 
1475.000000	96.707574 
1474.000000	96.678094 
1473.000000	96.641193 
1472.000000	96.601270 
1471.000000	96.563903 
1470.000000	96.533475 
1469.000000	96.514117 
1468.000000	96.506756 
1467.000000	96.506110 
1466.000000	96.506197 
1465.000000	96.507959 
1464.000000	96.514570 
1463.000000	96.523289 
1462.000000	96.530061 
1461.000000	96.537710 
1460.000000	96.552503 
1459.000000	96.576020 
1458.000000	96.600834 
1457.000000	96.619032 
1456.000000	96.634303 
1455.000000	96.648951 
1454.000000	96.661342 
1453.000000	96.674674 
1452.000000	96.689647 
1451.000000	96.702351 
1450.000000	96.708135 
1449.000000	96.705555 
1448.000000	96.696544 
1447.000000	96.684552 
1446.000000	96.674619 
1445.000000	96.672472 
1444.000000	96.679041 
1443.000000	96.688980 
1442.000000	96.695213 
1441.000000	96.696841 
1440.000000	96.700705 
1439.000000	96.713175 
1438.000000	96.730913 
1437.000000	96.742298 
1436.000000	96.743281 
1435.000000	96.742145 
1434.000000	96.746761 
1433.000000	96.760175 
1432.000000	96.781431 
1431.000000	96.806102 
1430.000000	96.828416 
1429.000000	96.844873 
1428.000000	96.857536 
1427.000000	96.871138 
1426.000000	96.888740 
1425.000000	96.909767 
1424.000000	96.931538 
1423.000000	96.953766 
1422.000000	96.978268 
1421.000000	97.005785 
1420.000000	97.033140 
1419.000000	97.055296 
1418.000000	97.073301 
1417.000000	97.094963 
1416.000000	97.126490 
1415.000000	97.166759 
1414.000000	97.209084 
1413.000000	97.248018 
1412.000000	97.283715 
1411.000000	97.319504 
1410.000000	97.356371 
1409.000000	97.392116 
1408.000000	97.423985 
1407.000000	97.449045 
1406.000000	97.465091 
1405.000000	97.473771 
1404.000000	97.480106 
1403.000000	97.487010 
1402.000000	97.492461 
1401.000000	97.493591 
1400.000000	97.491157 
1399.000000	97.492687 
1398.000000	97.510518 
1397.000000	97.553934 
1396.000000	97.621546 
1395.000000	97.693306 
1394.000000	97.737674 
1393.000000	97.740692 
1392.000000	97.717510 
1391.000000	97.693495 
1390.000000	97.684735 
1389.000000	97.694977 
1388.000000	97.721803 
1387.000000	97.760881 
1386.000000	97.805379 
1385.000000	97.848135 
1384.000000	97.885429 
1383.000000	97.916953 
1382.000000	97.943760 
1381.000000	97.966735 
1380.000000	97.984504 
1379.000000	97.994076 
1378.000000	97.995392 
1377.000000	97.992806 
1376.000000	97.990552 
1375.000000	97.988546 
1374.000000	97.983991 
1373.000000	97.975094 
1372.000000	97.961501 
1371.000000	97.944232 
1370.000000	97.926704 
1369.000000	97.913349 
1368.000000	97.906798 
1367.000000	97.904989 
1366.000000	97.901575 
1365.000000	97.890593 
1364.000000	97.870387 
1363.000000	97.845492 
1362.000000	97.823691 
1361.000000	97.808136 
1360.000000	97.796188 
1359.000000	97.786535 
1358.000000	97.781559 
1357.000000	97.782136 
1356.000000	97.784109 
1355.000000	97.782268 
1354.000000	97.776235 
1353.000000	97.769682 
1352.000000	97.764096 
1351.000000	97.757672 
1350.000000	97.750225 
1349.000000	97.743373 
1348.000000	97.737488 
1347.000000	97.731782 
1346.000000	97.726443 
1345.000000	97.721746 
1344.000000	97.715482 
1343.000000	97.704178 
1342.000000	97.687221 
1341.000000	97.668284 
1340.000000	97.652909 
1339.000000	97.644520 
1338.000000	97.641127 
1337.000000	97.636968 
1336.000000	97.628399 
1335.000000	97.617332 
1334.000000	97.609068 
1333.000000	97.607026 
1332.000000	97.609626 
1331.000000	97.612375 
1330.000000	97.612034 
1329.000000	97.608449 
1328.000000	97.603770 
1327.000000	97.600997 
1326.000000	97.601810 
1325.000000	97.604041 
1324.000000	97.602967 
1323.000000	97.595733 
1322.000000	97.583918 
1321.000000	97.571866 
1320.000000	97.563268 
1319.000000	97.559526 
1318.000000	97.559749 
1317.000000	97.561424 
1316.000000	97.561810 
1315.000000	97.559659 
1314.000000	97.555982 
1313.000000	97.553236 
1312.000000	97.553316 
1311.000000	97.555806 
1310.000000	97.557988 
1309.000000	97.557034 
1308.000000	97.552796 
1307.000000	97.548376 
1306.000000	97.547231 
1305.000000	97.549377 
1304.000000	97.551724 
1303.000000	97.551571 
1302.000000	97.549044 
1301.000000	97.546102 
1300.000000	97.543992 
1299.000000	97.542040 
1298.000000	97.538805 
1297.000000	97.534411 
1296.000000	97.531309 
1295.000000	97.532074 
1294.000000	97.536229 
1293.000000	97.540417 
1292.000000	97.542178 
1291.000000	97.542106 
1290.000000	97.541557 
1289.000000	97.540024 
1288.000000	97.536532 
1287.000000	97.532346 
1286.000000	97.530046 
1285.000000	97.531039 
1284.000000	97.535989 
1283.000000	97.545667 
1282.000000	97.559267 
1281.000000	97.572686 
1280.000000	97.580648 
1279.000000	97.582028 
1278.000000	97.581261 
1277.000000	97.583696 
1276.000000	97.591011 
1275.000000	97.601423 
1274.000000	97.612390 
1273.000000	97.622170 
1272.000000	97.630144 
1271.000000	97.637086 
1270.000000	97.644891 
1269.000000	97.655335 
1268.000000	97.669503 
1267.000000	97.688179 
1266.000000	97.710923 
1265.000000	97.734044 
1264.000000	97.751284 
1263.000000	97.758801 
1262.000000	97.759543 
1261.000000	97.761077 
1260.000000	97.768658 
1259.000000	97.781268 
1258.000000	97.794347 
1257.000000	97.805051 
1256.000000	97.813660 
1255.000000	97.821131 
1254.000000	97.827618 
1253.000000	97.833666 
1252.000000	97.840675 
1251.000000	97.848332 
1250.000000	97.852255 
1249.000000	97.846233 
1248.000000	97.827810 
1247.000000	97.801772 
1246.000000	97.778830 
1245.000000	97.770973 
1244.000000	97.784664 
1243.000000	97.813513 
1242.000000	97.838015 
1241.000000	97.839485 
1240.000000	97.818353 
1239.000000	97.796288 
1238.000000	97.796734 
1237.000000	97.824359 
1236.000000	97.865770 
1235.000000	97.906850 
1234.000000	97.944220 
1233.000000	97.980235 
1232.000000	98.012474 
1231.000000	98.032078 
1230.000000	98.031724 
1229.000000	98.012934 
1228.000000	97.984424 
1227.000000	97.952946 
1226.000000	97.916143 
1225.000000	97.866084 
1224.000000	97.800811 
1223.000000	97.730948 
1222.000000	97.673592 
1221.000000	97.640609 
1220.000000	97.632539 
1219.000000	97.638758 
1218.000000	97.640223 
1217.000000	97.617031 
1216.000000	97.560059 
1215.000000	97.476655 
1214.000000	97.383318 
1213.000000	97.293107 
1212.000000	97.211252 
1211.000000	97.138473 
1210.000000	97.072550 
1209.000000	97.008705 
1208.000000	96.944479 
1207.000000	96.883911 
1206.000000	96.832248 
1205.000000	96.786999 
1204.000000	96.738639 
1203.000000	96.679821 
1202.000000	96.610344 
1201.000000	96.534405 
1200.000000	96.457526 
1199.000000	96.385078 
1198.000000	96.318406 
1197.000000	96.252482 
1196.000000	96.181697 
1195.000000	96.107324 
1194.000000	96.035247 
1193.000000	95.967653 
1192.000000	95.902030 
1191.000000	95.837146 
1190.000000	95.774620 
1189.000000	95.715259 
1188.000000	95.659045 
1187.000000	95.607891 
1186.000000	95.562658 
1185.000000	95.517982 
1184.000000	95.466323 
1183.000000	95.408035 
1182.000000	95.351915 
1181.000000	95.304146 
1180.000000	95.261350 
1179.000000	95.215763 
1178.000000	95.162538 
1177.000000	95.100429 
1176.000000	95.030115 
1175.000000	94.954845 
1174.000000	94.879636 
1173.000000	94.807287 
1172.000000	94.737368 
1171.000000	94.669982 
1170.000000	94.607436 
1169.000000	94.551328 
1168.000000	94.500753 
1167.000000	94.454247 
1166.000000	94.411737 
1165.000000	94.375123 
1164.000000	94.349549 
1163.000000	94.343048 
1162.000000	94.360843 
1161.000000	94.398723 
1160.000000	94.443795 
1159.000000	94.482452 
1158.000000	94.506489 
1157.000000	94.512535 
1156.000000	94.499652 
1155.000000	94.469766 
1154.000000	94.428558 
1153.000000	94.383258 
1152.000000	94.338715 
1151.000000	94.295284 
1150.000000	94.250267 
1149.000000	94.202381 
1148.000000	94.155242 
1147.000000	94.114527 
1146.000000	94.080442 
1145.000000	94.045834 
1144.000000	94.004421 
1143.000000	93.958768 
1142.000000	93.916894 
1141.000000	93.882361 
1140.000000	93.850984 
1139.000000	93.816256 
1138.000000	93.774851 
1137.000000	93.727556 
1136.000000	93.677737 
1135.000000	93.628888 
1134.000000	93.581815 
1133.000000	93.534718 
1132.000000	93.486700 
1131.000000	93.438656 
1130.000000	93.389242 
1129.000000	93.333747 
1128.000000	93.270322 
1127.000000	93.204415 
1126.000000	93.143151 
1125.000000	93.087745 
1124.000000	93.035190 
1123.000000	92.984645 
1122.000000	92.937711 
1121.000000	92.894886 
1120.000000	92.856479 
1119.000000	92.824982 
1118.000000	92.801557 
1117.000000	92.781426 
1116.000000	92.757083 
1115.000000	92.725738 
1114.000000	92.691073 
1113.000000	92.659655 
1112.000000	92.638240 
1111.000000	92.630645 
1110.000000	92.633024 
1109.000000	92.635036 
1108.000000	92.629510 
1107.000000	92.619541 
1106.000000	92.612689 
1105.000000	92.610742 
1104.000000	92.610203 
1103.000000	92.610398 
1102.000000	92.613665 
1101.000000	92.619001 
1100.000000	92.622251 
1099.000000	92.622445 
1098.000000	92.623616 
1097.000000	92.627405 
1096.000000	92.630054 
1095.000000	92.628631 
1094.000000	92.626032 
1093.000000	92.626787 
1092.000000	92.631531 
1091.000000	92.638796 
1090.000000	92.649246 
1089.000000	92.663914 
1088.000000	92.679693 
1087.000000	92.691127 
1086.000000	92.697510 
1085.000000	92.705171 
1084.000000	92.721277 
1083.000000	92.746783 
1082.000000	92.776024 
1081.000000	92.801654 
1080.000000	92.819086 
1079.000000	92.827794 
1078.000000	92.830022 
1077.000000	92.827434 
1076.000000	92.817860 
1075.000000	92.795529 
1074.000000	92.754665 
1073.000000	92.692711 
1072.000000	92.612928 
1071.000000	92.528760 
1070.000000	92.464710 
1069.000000	92.442755 
1068.000000	92.458203 
1067.000000	92.470709 
1066.000000	92.430212 
1065.000000	92.317943 
1064.000000	92.160477 
1063.000000	92.006503 
1062.000000	91.895766 
1061.000000	91.847645 
1060.000000	91.862792 
1059.000000	91.921196 
1058.000000	91.984932 
1057.000000	92.019456 
1056.000000	92.016366 
1055.000000	91.990689 
1054.000000	91.957783 
1053.000000	91.917881 
1052.000000	91.859836 
1051.000000	91.771062 
1050.000000	91.644450 
1049.000000	91.484696 
1048.000000	91.308651 
1047.000000	91.131313 
1046.000000	90.951055 
1045.000000	90.756413 
1044.000000	90.546319 
1043.000000	90.334223 
1042.000000	90.131805 
1041.000000	89.938906 
1040.000000	89.751830 
1039.000000	89.570039 
1038.000000	89.389951 
1037.000000	89.203937 
1036.000000	89.013127 
1035.000000	88.831512 
1034.000000	88.669844 
1033.000000	88.526209 
1032.000000	88.402563 
1031.000000	88.319455 
1030.000000	88.297090 
1029.000000	88.322398 
1028.000000	88.346667 
1027.000000	88.321747 
1026.000000	88.237493 
1025.000000	88.123715 
1024.000000	88.021132 
1023.000000	87.952609 
1022.000000	87.915879 
1021.000000	87.896055 
1020.000000	87.880722 
1019.000000	87.863330 
1018.000000	87.839966 
1017.000000	87.810987 
1016.000000	87.783974 
1015.000000	87.767616 
1014.000000	87.761505 
1013.000000	87.756771 
1012.000000	87.746620 
1011.000000	87.731070 
1010.000000	87.712674 
1009.000000	87.694684 
1008.000000	87.683299 
1007.000000	87.683834 
1006.000000	87.692454 
1005.000000	87.697978 
1004.000000	87.694417 
1003.000000	87.687374 
1002.000000	87.686963 
1001.000000	87.698887 
1000.000000	87.722952 
999.000000	 87.755265 
998.000000	 87.790918 
997.000000	 87.828497 
996.000000	 87.871480 
995.000000	 87.921419 
994.000000	 87.971971 
993.000000	 88.015408 
992.000000	 88.053288 
991.000000	 88.094096 
990.000000	 88.141485 
989.000000	 88.191897 
988.000000	 88.243556 
987.000000	 88.300965 
986.000000	 88.369561 
985.000000	 88.451173 
984.000000	 88.543991 
983.000000	 88.642627 
982.000000	 88.741682 
981.000000	 88.843626 
980.000000	 88.958397 
979.000000	 89.089611 
978.000000	 89.225937 
977.000000	 89.353583 
976.000000	 89.473386 
975.000000	 89.596846 
974.000000	 89.729073 
973.000000	 89.865323 
972.000000	 90.001467 
971.000000	 90.137439 
970.000000	 90.271740 
969.000000	 90.403065 
968.000000	 90.536995 
967.000000	 90.680655 
966.000000	 90.829831 
965.000000	 90.971331 
964.000000	 91.100003 
963.000000	 91.224137 
962.000000	 91.351429 
961.000000	 91.478330 
960.000000	 91.597561 
959.000000	 91.708706 
958.000000	 91.815849 
957.000000	 91.919552 
956.000000	 92.016715 
955.000000	 92.106126 
954.000000	 92.189973 
953.000000	 92.270532 
952.000000	 92.347934 
951.000000	 92.421404 
950.000000	 92.491667 
949.000000	 92.561056 
948.000000	 92.629789 
947.000000	 92.693016 
946.000000	 92.745404 
945.000000	 92.789315 
944.000000	 92.833615 
943.000000	 92.882076 
942.000000	 92.928669 
941.000000	 92.968340 
940.000000	 93.005774 
939.000000	 93.046932 
938.000000	 93.087718 
937.000000	 93.120224 
936.000000	 93.146473 
935.000000	 93.175838 
934.000000	 93.210663 
933.000000	 93.245079 
932.000000	 93.278012 
931.000000	 93.316400 
930.000000	 93.363208 
929.000000	 93.412199 
928.000000	 93.458233 
927.000000	 93.503895 
926.000000	 93.551309 
925.000000	 93.595568 
924.000000	 93.632568 
923.000000	 93.667172 
922.000000	 93.706385 
921.000000	 93.748039 
920.000000	 93.783362 
919.000000	 93.809695 
918.000000	 93.834838 
917.000000	 93.868060 
916.000000	 93.911081 
915.000000	 93.959567 
914.000000	 94.010733 
913.000000	 94.066631 
912.000000	 94.129392 
911.000000	 94.195724 
910.000000	 94.260326 
909.000000	 94.325569 
908.000000	 94.402980 
907.000000	 94.501363 
906.000000	 94.616386 
905.000000	 94.735456 
904.000000	 94.850144 
903.000000	 94.959902 
902.000000	 95.067434 
901.000000	 95.176649 
900.000000	 95.292978 
899.000000	 95.418574 
898.000000	 95.546864 
897.000000	 95.667503 
896.000000	 95.777009 
895.000000	 95.879576 
894.000000	 95.977217 
893.000000	 96.064735 
892.000000	 96.136883 
891.000000	 96.196954 
890.000000	 96.255918 
889.000000	 96.324542 
888.000000	 96.406456 
887.000000	 96.495571 
886.000000	 96.578523 
885.000000	 96.642540 
884.000000	 96.684121 
883.000000	 96.710113 
882.000000	 96.728946 
881.000000	 96.740125 
880.000000	 96.732636 
879.000000	 96.694795 
878.000000	 96.628283 
877.000000	 96.554373 
876.000000	 96.504075 
875.000000	 96.498009 
874.000000	 96.534520 
873.000000	 96.597653 
872.000000	 96.675392 
871.000000	 96.767552 
870.000000	 96.877159 
869.000000	 96.999289 
868.000000	 97.120194 
867.000000	 97.225355 
866.000000	 97.308492 
865.000000	 97.374911 
864.000000	 97.436155 
863.000000	 97.499301 
862.000000	 97.560450 
861.000000	 97.609430 
860.000000	 97.640982 
859.000000	 97.660632 
858.000000	 97.679672 
857.000000	 97.705080 
856.000000	 97.734910 
855.000000	 97.763220 
854.000000	 97.788307 
853.000000	 97.813757 
852.000000	 97.840232 
851.000000	 97.860120 
850.000000	 97.866581 
849.000000	 97.867441 
848.000000	 97.881859 
847.000000	 97.918292 
846.000000	 97.961346 
845.000000	 97.987273 
844.000000	 97.989075 
843.000000	 97.979814 
842.000000	 97.974006 
841.000000	 97.973762 
840.000000	 97.972931 
839.000000	 97.965702 
838.000000	 97.948004 
837.000000	 97.918114 
836.000000	 97.881948 
835.000000	 97.853838 
834.000000	 97.845314 
833.000000	 97.852692 
832.000000	 97.859004 
831.000000	 97.849090 
830.000000	 97.822962 
829.000000	 97.796219 
828.000000	 97.788187 
827.000000	 97.807140 
826.000000	 97.843397 
825.000000	 97.875403 
824.000000	 97.883302 
823.000000	 97.859952 
822.000000	 97.814618 
821.000000	 97.767446 
820.000000	 97.734826 
819.000000	 97.715102 
818.000000	 97.690390 
817.000000	 97.645939 
816.000000	 97.584987 
815.000000	 97.520587 
814.000000	 97.456342 
813.000000	 97.382202 
812.000000	 97.286821 
811.000000	 97.164048 
810.000000	 97.006401 
809.000000	 96.803578 
808.000000	 96.554627 
807.000000	 96.275557 
806.000000	 95.988248 
805.000000	 95.705107 
804.000000	 95.428819 
803.000000	 95.161384 
802.000000	 94.907944 
801.000000	 94.677827 
800.000000	 94.488096 
799.000000	 94.360280 
798.000000	 94.305880 
797.000000	 94.317187 
796.000000	 94.374854 
795.000000	 94.459106 
794.000000	 94.551920 
793.000000	 94.638280 
792.000000	 94.713425 
791.000000	 94.784039 
790.000000	 94.854634 
789.000000	 94.914139 
788.000000	 94.941048 
787.000000	 94.921277 
786.000000	 94.858270 
785.000000	 94.767342 
784.000000	 94.663828 
783.000000	 94.556064 
782.000000	 94.446432 
781.000000	 94.338685 
780.000000	 94.244787 
779.000000	 94.182754 
778.000000	 94.166551 
777.000000	 94.199257 
776.000000	 94.274379 
775.000000	 94.379595 
774.000000	 94.500492 
773.000000	 94.626812 
772.000000	 94.755914 
771.000000	 94.885769 
770.000000	 95.005898 
769.000000	 95.102394 
768.000000	 95.173297 
767.000000	 95.232699 
766.000000	 95.296542 
765.000000	 95.368212 
764.000000	 95.439977 
763.000000	 95.503677 
762.000000	 95.556606 
761.000000	 95.599901 
760.000000	 95.634769 
759.000000	 95.660664 
758.000000	 95.677603 
757.000000	 95.691276 
756.000000	 95.712844 
755.000000	 95.748953 
754.000000	 95.793630 
753.000000	 95.836546 
752.000000	 95.878673 
751.000000	 95.931876 
750.000000	 96.001623 
749.000000	 96.077488 
748.000000	 96.144718 
747.000000	 96.199939 
746.000000	 96.251146 
745.000000	 96.306198 
744.000000	 96.365888 
743.000000	 96.426306 
742.000000	 96.484600 
741.000000	 96.542613 
740.000000	 96.605074 
739.000000	 96.672907 
738.000000	 96.739428 
737.000000	 96.796233 
736.000000	 96.842167 
735.000000	 96.881744 
734.000000	 96.915915 
733.000000	 96.941466 
732.000000	 96.959282 
731.000000	 96.976681 
730.000000	 97.000949 
729.000000	 97.035465 
728.000000	 97.077619 
727.000000	 97.116653 
726.000000	 97.140112 
725.000000	 97.146507 
724.000000	 97.148626 
723.000000	 97.159795 
722.000000	 97.180588 
721.000000	 97.204915 
720.000000	 97.233196 
719.000000	 97.268940 
718.000000	 97.304792 
717.000000	 97.324181 
716.000000	 97.319694 
715.000000	 97.300713 
714.000000	 97.280713 
713.000000	 97.265631 
712.000000	 97.256447 
711.000000	 97.253582 
710.000000	 97.254498 
709.000000	 97.255680 
708.000000	 97.257024 
707.000000	 97.259742 
706.000000	 97.261699 
705.000000	 97.257415 
704.000000	 97.241249 
703.000000	 97.207576 
702.000000	 97.146293 
701.000000	 97.048290 
700.000000	 96.919669 
699.000000	 96.777223 
698.000000	 96.631151 
697.000000	 96.483496 
696.000000	 96.348830 
695.000000	 96.266069 
694.000000	 96.269285 
693.000000	 96.353557 
692.000000	 96.479299 
691.000000	 96.603595 
690.000000	 96.707671 
689.000000	 96.794840 
688.000000	 96.872976 
687.000000	 96.945585 
686.000000	 97.009725 
685.000000	 97.062176 
684.000000	 97.108066 
683.000000	 97.156219 
682.000000	 97.208481 
681.000000	 97.260031 
680.000000	 97.309759 
679.000000	 97.359076 
678.000000	 97.401988 
677.000000	 97.433820 
676.000000	 97.460064 
675.000000	 97.489101 
674.000000	 97.518342 
673.000000	 97.534328 
672.000000	 97.523346 
671.000000	 97.476605 
670.000000	 97.386022 
669.000000	 97.272405 
668.000000	 97.241244 
667.000000	 97.352370 
666.000000	 97.502856 
665.000000	 97.628403 
664.000000	 97.728341 
663.000000	 97.807888 
662.000000	 97.866344 
661.000000	 97.905888 
660.000000	 97.928911 
659.000000	 97.939630 
658.000000	 97.949336 
657.000000	 97.972596 
656.000000	 98.004165 
655.000000	 98.020545 
654.000000	 98.013350 
653.000000	 97.997845 
652.000000	 97.983351 
651.000000	 97.965489 
650.000000	 97.950579 

